StartTime: 2017-07-14 14:47:44.458
Time(s)	ax(g)	ay(g)	az(g)	wx(deg/s)	wy(deg/s)	wz(deg/s)	AngleX(deg)	AngleY(deg)	AngleZ(deg)	T(°)	hx	hy	hz	Pressure(Pa)	Altitude(m) 
315.787	-0.4072	0.0010	0.9414	0.0000	-0.4272	0.5493	-0.0330	22.8790	91.3678	44.9700	245	-1	-27	100553	0.64 
315.865	-0.4038	-0.0010	0.9399	0.0000	-0.1831	0.0610	-0.0220	22.8900	91.3568	44.9700	240	0	-26	100553	0.64 
316.006	-0.4063	0.0000	0.9404	-0.1831	-0.2441	0.9766	-0.0055	22.9230	91.3348	44.9700	243	1	-25	100552	0.64 
316.068	-0.4111	-0.0010	0.9438	-0.1221	-0.2441	0.6714	0.0000	22.9449	91.3239	44.9700	244	0	-22	100553	0.64 
316.178	-0.4087	-0.0005	0.9409	-0.2441	-0.9766	0.7324	0.0055	22.9230	91.3019	44.9700	241	0	-26	100553	0.64 
316.287	-0.4263	0.0063	0.9438	-0.2441	-1.3428	1.4648	0.0220	22.9120	91.3458	44.9800	247	-1	-23	100553	0.64 
316.381	-0.4800	0.0073	0.9731	-0.6104	-0.1221	3.9673	0.1044	23.0054	91.5765	45.0000	246	-1	-26	100553	0.64 
316.506	-0.4009	0.0034	0.9053	1.6479	0.7324	0.9155	0.1373	22.6099	91.6644	44.9900	245	-2	-29	100553	0.64 
316.600	-0.4790	0.0410	0.8945	-0.6714	-13.4888	3.0518	0.4669	22.3187	91.7029	45.0000	242	-1	-27	100553	0.64 
316.694	-0.4644	0.0156	0.9346	-3.7231	-23.8647	4.5776	0.5109	20.7147	92.1808	44.9800	241	-4	-31	100553	0.64 
316.818	-0.4497	0.0093	0.9370	-5.4932	-26.7334	6.9580	0.3076	18.6438	92.7301	45.0100	238	-2	-41	100553	0.64 
316.912	-0.4097	0.0068	0.9365	-5.2490	-31.0669	4.3335	-0.0879	16.1115	93.0762	45.0000	236	-4	-47	100553	0.64 
317.021	-0.3877	0.0298	0.8916	-1.4648	-41.2598	-2.7466	-0.3790	12.9913	93.0322	45.0000	228	-3	-59	100553	0.64 
317.178	-0.3428	0.0806	0.7700	-3.2349	-45.7153	4.6997	-0.2856	9.2670	92.8729	45.0000	218	-2	-74	100552	0.64 
317.209	-0.2598	0.0322	0.5210	-6.1646	-33.8745	16.6016	-0.2362	6.1853	93.8782	45.0000	209	-2	-90	100552	0.64 
317.319	-0.0542	-0.0366	0.3711	-2.0752	-10.4370	3.4790	-0.6812	4.9329	95.0482	44.9900	201	-10	-97	100552	0.64 
317.428	0.1665	-0.0415	0.5195	-27.2217	-46.2646	28.0762	-1.4337	2.3071	96.6193	44.9800	193	-9	-102	100552	0.64 
317.522	0.3125	-0.3223	0.7422	-72.8760	-206.7261	37.7197	-6.5588	-7.5586	100.8325	44.9700	178	-15	-115	100553	0.64 
317.662	2.0640	-1.5605	3.0142	-118.2251	-225.5859	4.2725	-16.7761	-24.8401	107.5946	44.9700	128	-9	-150	100553	0.64 
317.740	0.3394	-0.6514	0.2754	-131.5308	-282.9590	23.4985	-34.3597	-45.6152	119.1138	44.9400	59	16	-181	100555	0.64 
317.866	0.8203	-0.7026	-0.2002	-44.4946	91.9189	54.1992	-65.7092	-51.0645	146.0468	44.9000	-6	49	-173	100555	0.64 
317.960	0.7749	-0.6489	-0.4595	-16.3574	-42.4194	10.3149	-70.9387	-51.2292	148.1012	44.8800	-15	68	-168	100555	0.64 
318.085	0.9028	-0.8027	0.1655	29.1138	19.1650	-36.2549	-69.5544	-51.4929	147.3102	44.8600	-19	72	-168	100556	0.64 
318.225	1.0005	-0.6318	0.0771	44.3115	80.3833	-7.8125	-61.0291	-53.8165	140.9436	44.8700	-22	64	-172	100556	0.64 
318.287	0.7495	-0.3740	0.5806	57.6172	89.9048	-21.4233	-45.9229	-48.6914	127.0679	44.8700	-1	51	-179	100556	0.64 
318.463	0.0503	0.0962	1.2554	10.9253	67.6270	-29.5410	-33.0743	-46.8787	115.0763	44.8700	22	35	-181	100557	0.64 
318.510	0.6396	-0.4639	0.6030	-17.3950	-36.6821	25.4517	-34.3433	-45.9064	116.8066	44.8700	31	28	-185	100557	0.64 
318.666	0.5586	-0.2153	0.7368	3.2349	-22.4609	-21.7896	-32.8436	-48.5925	114.8676	44.8600	24	31	-187	100557	0.64 
318.713	1.1392	-0.3887	0.3608	-13.1226	-17.5171	0.4272	-35.9143	-51.7181	117.1088	44.8500	15	34	-188	100557	0.64 
318.916	0.7710	-0.3960	0.4048	9.4604	20.6299	13.1836	-36.5295	-51.3556	117.7515	44.8400	11	36	-185	100557	0.64 
318.963	0.7217	-0.4307	0.6035	3.8452	26.0010	4.6997	-35.2936	-48.5925	117.1582	44.8300	20	35	-188	100557	0.64 
319.072	0.6387	-0.3530	0.6782	6.4087	9.0332	-2.3193	-33.9697	-46.9556	116.3672	44.8400	29	32	-189	100557	0.64 
319.135	0.7915	-0.3521	0.5703	-0.4883	-7.1411	-8.7891	-32.9700	-47.1863	115.5981	44.8400	28	29	-189	100558	0.64 
319.307	0.7837	-0.3418	0.5269	-2.5024	4.2725	1.2817	-32.8601	-47.6917	115.2850	44.8400	28	29	-188	100558	0.64 
319.385	0.7241	-0.3657	0.6138	-1.0376	8.4229	3.1128	-32.6074	-46.8787	114.9005	44.8400	32	32	-189	100558	0.64 
319.479	0.7456	-0.3633	0.6006	0.7324	-2.0142	1.4038	-32.4976	-46.5051	114.8401	44.8400	35	31	-183	100558	0.64 
319.573	0.7437	-0.3633	0.5903	0.7935	1.0376	-0.7324	-32.4371	-46.5216	114.9554	44.8400	33	29	-187	100557	0.64 
319.713	0.7373	-0.3569	0.6050	-0.3052	0.4272	1.4038	-32.3383	-46.3898	114.9500	44.8400	34	29	-188	100558	0.64 
319.792	0.7388	-0.3672	0.6011	-0.7324	-1.6479	-0.1831	-32.3767	-46.3293	115.0818	44.8400	34	29	-188	100558	0.64 
319.932	0.7466	-0.3628	0.5908	-1.2817	-3.7231	-0.5493	-32.5525	-46.4612	115.3400	44.8400	32	31	-185	100559	0.64 
320.026	0.7349	-0.3696	0.5923	-0.1831	0.5493	1.5259	-32.6843	-46.5875	115.5048	44.8400	34	31	-184	100558	0.64 
320.182	0.7319	-0.3564	0.6050	0.0000	0.1221	0.4883	-32.6788	-46.5326	115.5652	44.8300	35	33	-190	100559	0.64 
320.291	0.7427	-0.3574	0.5918	-0.5493	-1.4038	0.4272	-32.7557	-46.6260	115.6970	44.8600	30	32	-188	100558	0.64 
320.369	0.7437	-0.3682	0.5879	-0.7935	-1.0986	1.4648	-32.8876	-46.6974	115.8673	44.8500	31	32	-188	100558	0.64 
320.494	0.7368	-0.3672	0.5933	-0.3662	-1.0986	0.6104	-33.0029	-46.7139	116.0596	44.8600	29	30	-185	100558	0.64 
320.572	0.7378	-0.3555	0.5771	-0.5493	-1.2817	1.8311	-33.0798	-46.7798	116.2354	44.8500	30	29	-188	100557	0.64 
320.698	0.7271	-0.3569	0.6006	-0.1221	-1.2817	0.1831	-33.0249	-46.7413	116.2244	44.8500	31	33	-186	100557	0.64 
320.791	0.7422	-0.3652	0.5942	-0.3662	0.3662	1.8311	-33.0029	-46.8182	116.2683	44.8600	29	30	-185	100557	0.64 
320.916	0.7437	-0.3672	0.5879	-0.0610	0.3662	0.3052	-32.9865	-46.8073	116.3287	44.8500	31	29	-187	100557	0.64 
320.995