StartTime: 2017-07-14 14:15:41.614
Time(s)	ax(g)	ay(g)	az(g)	wx(deg/s)	wy(deg/s)	wz(deg/s)	AngleX(deg)	AngleY(deg)	AngleZ(deg)	T(°)	hx	hy	hz	Pressure(Pa)	Altitude(m) 
1829.661	-0.3462	-0.0474	0.9805	-2.8687	2.9297	9.2163	-1.3678	18.3472	3.8013	45.7600	31	148	-76	100547	0.65 
1829.771	-0.3413	-0.0415	0.9819	-0.1221	-1.0986	-0.1831	-1.3788	18.4241	4.2242	45.7700	33	145	-74	100548	0.65 
1829.927	-0.3257	-0.0073	0.9688	0.9155	0.1221	-1.4038	-1.4117	18.3691	3.9166	45.7700	38	144	-76	100548	0.65 
1829.974	-0.3359	-0.0078	0.9756	-0.9155	0.3052	0.3052	-1.3568	18.4570	3.8507	45.7600	31	145	-77	100548	0.65 
1830.053	-0.3359	-0.0161	0.9722	-0.9766	2.3804	0.6714	-1.4612	18.6108	3.7024	45.7400	32	144	-74	100548	0.65 
1830.177	-0.3379	-0.0210	0.9790	1.4648	2.1973	-0.3052	-1.3733	18.8635	3.6694	45.7500	32	147	-74	100549	0.65 
1830.271	-0.3130	0.0317	0.9668	0.9155	0.9766	-0.9766	-1.3184	18.8470	3.3563	45.7400	34	147	-72	100549	0.65 
1830.380	-0.3218	0.0347	0.9717	0.1831	3.9063	5.7373	-1.0602	19.0173	3.6914	45.7600	35	149	-75	100549	0.65 
1830.474	-0.3735	-0.0425	0.9678	-1.2817	3.6621	1.6479	-0.4779	20.0720	4.6692	45.7500	37	141	-75	100549	0.65 
1830.583	-0.3687	-0.0063	0.9585	-3.1128	0.2441	-18.8599	-1.1206	20.0610	3.3673	45.7200	37	143	-75	100549	0.65 
1830.739	-0.3340	0.0474	1.0981	0.3052	11.0474	-20.3857	-2.2852	20.6104	0.8020	45.7400	31	147	-74	100550	0.65 
1830.786	-0.2104	-0.0957	0.8838	-13.3667	-7.0190	15.9302	-2.4445	19.7589	1.5765	45.7400	28	146	-72	100550	0.65 
1830.880	-0.3672	-0.1533	1.1143	-7.2632	11.0474	5.0049	-3.3618	20.6763	2.4115	45.7500	34	145	-68	100550	0.65 
1830.989	-0.1938	-0.0171	0.9072	0.9155	-3.2349	-8.0566	-4.2297	19.4293	1.7194	45.7300	34	145	-67	100550	0.65 
1831.068	-0.3232	-0.0674	1.0859	-4.7607	1.5259	6.2256	-3.9771	19.6106	2.2137	45.7400	33	147	-67	100550	0.65 
1831.193	-0.6548	-0.2861	1.5034	9.9487	34.9731	8.7280	-3.9990	20.5225	3.2739	45.7200	43	146	-61	100551	0.65 
1831.302	-0.3774	0.0093	0.4873	6.7139	9.7046	33.8135	-1.2140	20.7642	5.4987	45.7000	48	146	-70	100551	0.65 
1831.396	-0.3833	0.1138	0.9487	13.7329	-21.3013	1.2207	-0.1978	22.3077	6.0370	45.6900	56	145	-72	100551	0.65 
1831.458	-0.2583	0.0278	0.6797	3.9673	7.7515	7.7515	1.6699	21.2970	7.7673	45.6500	58	143	-80	100550	0.65 
1831.646	-0.3105	0.1470	0.9180	1.6479	0.9155	16.7847	2.4060	21.7255	9.0088	45.6800	63	143	-82	100550	0.65 
1831.693	-0.5068	-0.0571	1.3530	-6.9580	-4.3945	0.4272	2.7521	21.5552	11.2500	45.6700	70	142	-77	100550	0.65 
1831.786	-0.5254	0.2378	1.2017	-6.8359	-0.6104	-7.2632	1.8347	19.5776	10.8160	45.6800	74	140	-80	100550	0.65 
1831.881	-0.3760	-0.2188	0.3872	0.0000	-17.1509	-42.3584	-0.3296	18.5834	7.5861	45.6800	68	146	-81	100550	0.65 
1832.021	-0.4453	0.0977	1.0698	-20.8740	-12.3291	20.2637	-1.6425	20.2698	5.4272	45.6700	57	149	-85	100549	0.65 
1832.083	-0.1792	-0.2397	0.5117	-3.6011	13.0005	-10.3149	-3.4772	19.1656	6.4545	45.6800	60	153	-83	100549	0.65 
1832.208	-0.2749	-0.0488	0.9575	2.6855	0.6104	-4.5166	-4.6198	20.6708	5.1361	45.6800	62	152	-83	100549	0.65 
1832.286	-0.3467	-0.1270	1.1538	1.8921	13.6719	-15.6860	-4.7021	21.3245	4.9329	45.6600	64	154	-83	100549	0.65 
1832.380	-0.7866	-0.1411	1.5977	5.6763	14.8926	42.0532	-4.4165	22.9779	6.1359	45.6900	68	154	-81	100549	0.65 
1832.506	-0.2588	-0.0332	0.4199	8.6060	1.1597	38.0249	-1.3458	21.0992	10.4755	45.6600	75	153	-86	100548	0.65 
1832.677	-0.3535	0.1045	0.9326	0.7935	-26.5503	7.0801	0.4449	22.1265	12.4530	45.6500	83	147	-91	100548	0.65 
1832.771	-0.2832	-0.0205	0.6265	7.3853	29.5410	2.0752	0.4559	21.4453	12.8595	45.6500	83	148	-95	100548	0.65 
1832.802	-0.3252	0.1084	1.0029	5.8594	-3.6011	-2.6245	1.5491	22.6428	13.4747	45.6400	88	147	-99	100547	0.65 
1832.896	-0.4302	0.0552	1.3394	0.5493	1.0376	-4.9438	1.9556	22.5330	14.1833	45.6500	93	147	-98	100547	0.65 
1833.021	-0.7852	-0.1162	1.2759	-8.6670	-19.4702	-18.1274	1.3293	22.9120	14.0350	45.6500	92	148	-98	100547	0.65 
1833.099	-0.2983	0.0425	0.7554	-1.9531	32.0435	-37.4756	-1.3898	22.2308	9.0088	45.6300	80	156	-104	100547	0.65 
1833.193	-0.2681	0.0112	0.6685	-12.0850	-8.4839	-11.7188	-2.5928	22.9889	7.8827	45.6300	76	160	-102	100546	0.65 
1833.302	-0.3755	-0.0508	0.8584	-8.9111	26.4893	-4.2725	-3.8617	24.4171	6.9489	45.6400	75	163	-100	100546	0.65 
1833.412	-0.3418	-0.2476	0.9844	6.8970	0.1831	-0.7935	-4.2462	24.5764	7.4542	45.6400	81	163	-98	100546	0.65 
1833.491	-0.5596	0.0522	1.3784	-0.9766	-2.9907	3.6011	-3.6530	24.5490	7.2565	45.6400	77	162	-101	100546	0.65 
1833.600	-0.4849	0.0732	0.7920	17.0288	-19.8364	34.8511	-1.9885	23.8184	9.9536	45.6200	81	163	-101	100546	0.65 
1833.694	-0.3921	0.0332	1.0464	11.8408	6.6528	5.1880	0.4065	23.4283	12.3816	45.6200	87	160	-109	100545	0.65 
1833.803	-0.2466	-0.0244	0.5820	2.4414	-17.7612	4.0283	1.5546	21.5936	13.2605	45.6000	89	154	-116	100545	0.65 
1833.882	-0.3003	0.0571	0.9048	1.6479	10.2539	4.5776	2.2357	21.9287	13.8812	45.6100	89	154	-118	100545	0.65 
1834.022	-0.4238	0.1582	1.2847	-1.9531	17.3340	14.8926	2.6752	22.3132	15.3259	45.6200	94	156	-114	100544	0.65 
1834.100	-0.7070	0.2114	1.4800	-3.9063	31.7993	-3.5400	3.0487	22.3846	16.6113	45.6000	98	155	-113	100544	0.65 
1834.210	-0.3496	-0.1357	0.3882	0.9766	-17.3950	-42.7246	0.5493	22.1759	12.2113	45.5900	96	155	-115	100544	0.65 
1834.273	-0.4468	0.0112	0.9150	-13.3667	1.6479	3.2349	-0.6647	23.7360	10.3931	45.5900	88	163	-117	100544	0.65 
1834.462	-0.2549	-0.0400	0.6021	-5.0659	18.7988	-15.4419	-2.3895	23.7524	9.3219	45.5800	84	165	-114	100543	0.65 
1834.493	-0.3320	-0.0415	0.9121	-10.7422	13.8550	18.2495	-3.2355	25.5542	9.2725	45.6000	85	169	-111	100543	0.65 
1834.618	-0.6270	-0.2539	1.4346	-3.6621	-1.6479	18.7988	-2.3346	27.3010	12.6343	45.5900	95	165	-104	100543	0.65 
1834.696	-0.7432	0.1318	1.2515	21.3623	5.0049	16.9067	-2.4390	26.5594	12.3816	45.6000	97	166	-106	100543	0.65 
1834.868	-0.3481	0.0234	0.6240	14.4043	-17.3950	-12.7563	0.7141	24.8950	14.6173	45.5700	105	159	-110	100543	0.65 
1834.899	-0.3252	-0.0059	0.6646	5.6152	-15.3198	2.8076	1.9995	23.9886	13.7988	45.5800	97	159	-118	100542	0.65 
1835.024	-0.3369	0.0439	0.7378	4.9438	16.0522	1.4648	2.5323	24.0546	13.5516	45.5600	101	158	-127	100542	0.65 
1835.102	-0.3740	0.1841	1.0059	-0.9155	3.1128	-0.1831	2.9718	24.2029	13.8702	45.5700	98	158	-120	100542	0.65 
1835.259	-0.3545	0.2471	1.2910	-8.0566	-19.4092	4.3945	2.9279	23.1866	14.3427	45.5800	100	159	-120	100542	0.65 
1835.321	-0.6909	-0.2383	1.0200	-14.0381	-26.1230	-26.5503	2.0160	23.5107	14.2493	45.5500	105	159	-121	100541	0.65 
1835.415	-0.2915	0.0425	0.7720	-12.7563	14.4653	0.9766	-0.1208	22.5989	10.6732	45.5600	92	168	-121	100541	0.65 
1835.509	-0.3926	0.0127	0.6929	-15.0146	0.3052	5.6152	-1.5491	23.7634	11.0797	45.5400	97	171	-116	100541	0.65 
1835.618	-0.3350	-0.1353	0.9224	-12.5732	11.5967	-7.6294	-2.8345	24.6094	11.1292	45.5500	99	171	-113	100540	0.65 
1835.696	-0.3394	-0.0688	0.9346	-4.3335	12.4512	12.8174	-4.1199	24.3622	11.4862	45.5600	100	175	-108	100540	0.66 
1835.884	-0.7954	-0.1001	1.3867	7.0190	23.0103	1.1597	-4.2572	25.3290	11.5411	45.5500	109	175	-106	100540	0.66 
1835.915	-0.3691	-0.0454	0.4673	6.7749	-31.0669	16.7236	-0.7526	25.4169	15.3754	45.5600	118	174	-110	100539	0.66 
1836.040	-0.4336	0.1689	0.9697	8.8501	-10.3149	22.4609	0.4504	25.1807	15.8917	45.5600	122	169	-116	100539	0.66 
1836.103	-0.3086	-0.0132	0.5356	1.6479	10.1318	3.7842	1.0052	23.8953	16.7706	45.5600	120	166	-119	100538	0.66 
1836.321	-0.3389	0.1567	0.9268	1.0376	-7.2632	6.4697	1.9720	24.5490	17.6550	45.5600	128	165	-123	100538	0.66 
1836.353	-0.4854	0.0840	1.4204	-1.6479	-6.4697	-5.7373	2.6093	24.6753	18.5120	45.5600	131	160	-125	100538	0.66 
1836.431	-0.7935	-0.0488	1.3281	-14.5264	12.8174	-7.3853	1.8622	24.4775	18.7756	45.5600	128	163	-124	100537	0.66 
1836.509	-0.3296	0.0527	0.6377	-3.9063	11.0474	-42.0532	-1.0437	24.0710	14.4910	45.5500	121	172	-124	100537	0.66 
1836.634	-0.3662	-0.0420	0.6753	-19.6533	-2.6855	11.2915	-1.5656	24.5764	15.0458	45.5400	119	175	-126	100537	0.66 
1836.713	-0.3818	-0.1445	0.8896	-5.9204	14.6484	-17.8223	-3.6310	25.5103	14.2657	45.5600	120	176	-118	100537	0.66 
1836.919	-0.3228	-0.1245	1.0117	2.3804	-6.7749	-9.0942	-5.0757	25.1422	12.9419	45.5700	116	179	-117	100537	0.66 
1836.982	-0.4937	-0.0479	1.3379	11.5356	0.0000	-25.2075	-5.5316	23.8623	10.1349	45.5500	106	183	-119	100537	0.66 
1837.075	-0.6768	0.1050	0.8301	18.6157	-8.4229	33.0200	-2.4280	24.8291	12.7606	45.5400	107	179	-128	100536	0.66 
1837.122	-0.3086	0.0991	0.8662	8.3008	1.4648	11.8408	-0.2252	24.6643	14.2053	45.5200	110	176	-135	100536	0.66 
1837.294	-0.2759	-0.0723	0.5493	2.6855	-5.0659	-5.9204	1.0767	23.9337	15.8203	45.5100	109	167	-137	100536	0.66 
1837.325	-0.4028	0.1025	0.9727	5.1880	8.4839	11.7188	1.7139	24.9445	16.2872	45.5000	112	168	-143	100536	0.66 
1837.513	-0.4214	0.0693	1.1636	8.9722	3.6621	3.6621	2.9828	24.4556	17.7979	45.5000	116	162	-141	100535	0.66 
1837.528	-0.5215	0.3491	1.2974	-4.7607	-8.1787	8.9722	3.6145	23.4229	18.2373	45.5100	113	161	-147	100535	0.66 
1837.732	-0.4629	-0.1733	0.5054	-1.7700	-25.5737	-31.6162	2.0490	23.3789	16.6333	45.5200	109	162	-149	100535	0.66 
1837.747	-0.3325	-0.0313	0.8882	-14.3433	-1.1597	-20.3857	-0.8569	24.5984	12.4200	45.5100	98	166	-148	100535	0.66 
1837.810	-0.3013	-0.1006	0.5625	-12.3291	18.5547	-14.3433	-2.5928	24.8236	11.0468	45.5000	96	171	-148	100534	0.66 
1837.920	-0.4160	-0.0854	1.0659	1.0986	-25.0854	-2.6245	-4.6967	25.2576	8.8165	45.5000	90	173	-142	100534	0.66 
1838.013	-0.5127	-0.1177	1.4194	19.5313	0.9766	-10.4370	-3.9001	23.9172	8.6462	45.5000	78	171	-144	100534	0.66 
1838.169	-0.6709	0.0757	1.1558	8.4839	-12.3291	29.6021	-2.1753	23.6316	8.6023	45.5200	71	167	-155	100533	0.66 
1838.279	-0.3135	-0.1494	0.7603	4.0283	28.3203	20.5078	0.5438	22.9120	10.9644	45.5000	68	159	-159	100533	0.66 
1838.325	-0.2510	0.1006	0.5918	8.1787	-17.2729	8.1177	1.5491	22.8021	10.7281	45.5000	67	151	-164	100533	0.66 
1838.466	-0.3574	0.0361	0.9722	0.2441	22.1558	11.4746	3.2190	23.4064	11.9916	45.5000	68	149	-165	100532	0.66 
1838.529	-0.3394	0.1455	0.9194	-2.5635	0.6104	20.2026	3.9990	23.4888	13.4033	45.4900	73	147	-168	100532	0.66 
1838.700	-0.3066	0.1338	1.1685	8.4229	-8.5449	-10.9863	4.4824	23.2965	13.6890	45.5000	74	148	-165	100533	0.66 
1838.732	-0.6899	-0.0635	1.4067	-5.6152	-9.0942	-4.6387	4.9768	23.7030	12.9144	45.4900	72	148	-170	100532	0.66 
1838.841	-0.4370	0.0459	0.4063	-3.8452	8.6060	-37.4146	2.3071	22.8735	6.4380	45.4900	58	150	-180	100532	0.66 
1838.935	-0.3604	0.0234	0.7632	-14.3433	-10.9863	-8.4839	0.9283	23.5547	4.3945	45.4800	46	154	-173	100531	0.66 
1839.029	-0.4263	-0.1899	0.8228	-7.4463	15.5029	-9.1553	-1.2030	23.8898	2.2247	45.4700	41	157	-169	100531	0.66 
1839.139	-0.3452	0.0342	0.9668	-13.9771	-12.9395	-1.8311	-2.2412	23.7744	0.7251	45.4900	40	159	-166	100530	0.66 
1839.233	-0.2871	-0.2104	0.8110	9.8877	-25.7568	3.3569	-2.4554	21.2970	0.7855	45.4900	34	161	-163	100530	0.66 
1839.373	-0.6094	0.4229	1.2783	6.9580	7.3242	-1.8921	-0.9833	21.3354	0.1703	45.5000	29	157	-170	100530	0.66 
1839.436	-0.2261	-0.3228	0.8340	-5.6152	-12.2070	14.8926	-1.0492	20.5334	-0.3845	45.5100	26	158	-172	100530	0.66 
1839.530	-0.4312	0.1133	0.9751	0.4883	-2.0142	-12.8174	-1.2854	20.5389	-1.7358	45.4900	24	159	-173	100529	0.66 
1839.624	-0.3984	-0.0840	1.0161	-3.5400	1.0986	17.0288	-0.8240	21.0004	-1.2415	45.5200	27	156	-171	100529	0.66 
1839.764	-0.3525	0.0371	0.9556	-1.4648	-2.1362	0.9155	-1.3184	20.4895	-1.8787	45.5200	27	159	-169	100529	0.66 
1839.842	-0.3696	-0.0571	0.9731	-2.9297	-0.3662	4.0283	-1.3184	20.4785	-2.0105	45.5200	27	158	-170	100528	0.66 
1839.936	-0.3535	-0.0249	0.9736	-1.6479	0.6104	2.7466	-1.3348	20.4675	-2.2742	45.5200	26	156	-172	100529	0.66 
1840.045	-0.3657	-0.0342	0.9819	-0.6104	-1.3428	0.4272	-1.4447	20.4346	-2.6971	45.5300	29	157	-169	100529	0.66 
1840.139	-0.3438	-0.0210	0.9629	0.1221	-0.4883	3.1738	-1.4227	20.2368	-2.9938	45.5300	30	158	-167	100529	0.66 
1840.249	-0.3364	-0.0205	0.9658	0.0000	-1.4038	2.3193	-1.2964	20.0940	-3.1256	45.5500	27	157	-169	100528	0.66 
1840.358	-0.3413	-0.0107	0.9644	0.0610	-0.7324	1.2817	-1.2799	19.9841	-3.4497	45.5500	32	158	-166	100528	0.67 
1840.421	-0.3413	-0.0171	0.9780	-0.3052	-1.4038	1.5869	-1.1755	19.8798	-3.6475	45.5500	31	160	-167	100528	0.67 
1840.545	-0.3315	-0.0151	0.9692	0.0000	-1.7700	-1.0986	-1.1371	19.7040	-3.9496	45.5600	30	159	-167	100529	0.66 
1840.639	-0.3389	-0.0078	0.9707	0.1831	-0.7935	0.1221	-1.1316	19.5447	-4.3616	45.5500	31	158	-167	100529	0.66 
1840.780	-0.3354	-0.0132	0.9717	0.1831	-0.3662	1.1597	-1.0162	19.4293	-4.5099	45.5700	28	157	-168	100529	0.66 
1840.842	-0.3320	0.0015	0.9692	0.3052	-0.6714	1.4038	-0.9393	19.3579	-4.7186	45.5700	30	155	-171	100529	0.66 
1840.952	-0.3359	-0.0107	0.9746	0.4272	0.4883	-1.0376	-0.8844	19.3469	-5.0208	45.5700	30	157	-170	100529	0.66 
1841.046	-0.3296	-0.0171	0.9702	0.0000	0.0610	-0.0610	-0.8734	19.3250	-5.3778	45.5900	29	156	-169	100529	0.66 
1841.186	-0.3311	-0.0112	0.9683	0.0000	-0.2441	-2.3804	-0.9119	19.3250	-5.7678	45.5800	31	159	-167	100529	0.66 
1841.218	-0.3330	-0.0054	0.9736	0.0000	0.0000	0.3662	-0.8954	19.3250	-6.1029	45.5900	25	159	-169	100528	0.66 
1841.389	-0.3389	-0.0063	0.9766	-0.2441	0.7324	0.7935	-0.8954	19.3250	-6.3501	45.5800	25	157	-167	100528	0.67 
1841.467	-0.3354	-0.0176	0.9712	-0.4883	-0.5493	0.6714	-0.9174	19.3195	-6.5808	45.5800	26	156	-171	100528	0.67 
1841.546	-0.3374	-0.0098	0.9683	-0.0610	-0.4272	0.6714	-0.9229	19.2206	-6.7896	45.6200	28	154	-169	100528	0.67 
1841.640	-0.3311	-0.0176	0.9644	-0.4272	-0.5493	0.5493	-0.9283	19.1382	-6.9873	45.5900	25	156	-166	100528	0.67 
1841.816	-0.3325	-0.0146	0.9668	-0.1831	-0.9766	-0.6714	-0.9393	19.0887	-7.2235	45.6200	26	157	-171	100528	0.67 
1841.863	-0.3325	-0.0039	0.9717	-0.2441	-1.2817	-0.3662	-0.9668	18.9899	-7.5421	45.6100	28	155	-169	100527	0.67 
1841.956	-0.3330	-0.0098	0.9717	-0.9766	-0.7935	1.3428	-0.9833	18.9075	-7.6135	45.6000	28	157	-167	100527	0.67 
1842.034	-0.3335	-0.0127	0.9771	-0.8545	-0.9766	0.7324	-1.0162	18.8470	-7.6685	45.6000	28	154	-169	100527	0.67 
1842.159	-0.3311	-0.0156	0.9717	-0.4272	-0.6104	0.7324	-1.0547	18.7372	-7.7783	45.6100	27	156	-169	100528	0.67 
1842.253	-0.3320	-0.0190	0.9678	-0.4883	-0.5493	1.2817	-1.0767	18.6768	-7.9211	45.6000	27	157	-170	100528	0.67 
1842.363	-0.3330	-0.0137	0.9722	-0.4883	-0.7935	-0.1221	-1.0876	18.6548	-8.0420	45.6000	30	158	-171	100528	0.67 
1842.441	-0.3325	-0.0122	0.9741	-0.5493	-0.9766	0.7324	-1.1041	18.5889	-8.1683	45.6200	27	157	-170	100528	0.67 
1842.566	-0.3315	-0.0171	0.9707	-0.5493	1.2817	0.4883	-1.1151	18.5724	-8.2617	45.6100	25	155	-172	100528	0.67 
1842.644	-0.3311	-0.0122	0.9702	-0.4272	-0.1831	0.5493	-1.1371	18.6328	-8.4375	45.6000	25	158	-170	100528	0.67 
1842.769	-0.3340	-0.0142	0.9722	-0.2441	0.1221	1.1597	-1.1261	18.6493	-8.4814	45.6200	28	159	-166	100528	0.67 
1842.847	-0.3340	-0.0225	0.9668	-0.4883	0.7935	1.1597	-1.1316	18.6658	-8.5803	45.6200	23	158	-171	100528	0.67 
1842.972	-0.3257	-0.0093	0.9658	-0.3662	-1.2207	-0.1831	-1.1096	18.6438	-8.7067	45.6200	28	156	-170	100527	0.67 
1843.050	-0.3340	-0.0112	0.9722	-0.6714	-0.9155	2.1362	-1.0931	18.5999	-8.6737	45.6200	29	160	-170	100528	0.67 
1843.175	-0.3359	-0.0166	0.9751	-0.7324	-0.5493	1.2817	-1.1041	18.5834	-8.6572	45.6200	25	155	-169	100528	0.67 
1843.238	-0.3364	-0.0176	0.9702	-0.8545	1.2207	2.1362	-1.1041	18.6108	-8.6682	45.6200	25	156	-172	100527	0.67 
1843.394	-0.3330	-0.0122	0.9717	-0.8545	1.6479	1.9531	-1.0986	18.7482	-8.6902	45.6300	25	157	-173	100528	0.67 
1843.441	-0.3306	-0.0166	0.9717	-0.9155	0.0000	1.4648	-1.1261	18.7811	-8.7012	45.6500	30	156	-171	100527	0.67 
1843.566	-0.3311	-0.0112	0.9683	-0.7935	-1.7090	1.4038	-1.1151	18.7592	-8.6847	45.6500	28	158	-171	100527	0.67 
1843.660	-0.3354	-0.0098	0.9707	-0.6714	-0.7935	2.6855	-1.0931	18.7042	-8.5693	45.6600	28	156	-168	100527	0.67 
1843.785	-0.3315	-0.0161	0.9668	-0.6714	-0.1831	1.5259	-1.0931	18.6713	-8.4485	45.6500	29	158	-166	100527	0.67 
1843.910	-0.3359	-0.0146	0.9717	-0.5493	0.0000	0.7324	-1.1096	18.6932	-8.3990	45.6500	32	156	-171	100526	0.67 
1844.035	-0.3345	-0.0156	0.9688	-0.2441	0.0000	0.7935	-1.1151	18.7097	-8.3661	45.6800	31	158	-168	100527	0.67 
1844.066	-0.3306	-0.0146	0.9707	-0.4272	-0.7324	0.4272	-1.0986	18.6877	-8.4100	45.6700	31	160	-168	100526	0.67