StartTime: 2017-07-14 14:15:41.614
Time(s)	ax(g)	ay(g)	az(g)	wx(deg/s)	wy(deg/s)	wz(deg/s)	AngleX(deg)	AngleY(deg)	AngleZ(deg)	T(°)	hx	hy	hz	Pressure(Pa)	Altitude(m) 
302.943	-0.3496	0.0591	0.9570	-1.9531	-2.8076	0.3052	3.2849	19.8578	91.9006	44.5400	218	-7	-33	100564	0.63 
303.052	-0.3594	0.0557	0.9844	-1.0986	-2.6855	2.1973	3.2025	19.5831	92.0270	44.5300	220	-5	-32	100564	0.63 
303.146	-0.3433	0.0591	0.9668	-1.1597	-6.1646	2.5635	3.1696	19.1162	92.1094	44.5200	214	-6	-37	100564	0.63 
303.271	-0.3501	0.0601	1.0073	-1.5869	-6.2866	3.5400	3.1531	18.4735	92.2247	44.5300	216	-6	-39	100564	0.63 
303.349	-0.3413	0.0386	0.9624	0.4272	-20.2637	10.8643	3.2135	16.9519	92.7136	44.5300	218	-6	-42	100564	0.63 
303.474	-0.3403	0.1021	1.0151	-2.0142	-38.7573	5.6763	3.2959	14.2822	93.1860	44.5200	210	-10	-47	100564	0.64 
303.553	-0.2520	0.0957	0.9932	-2.3804	-61.0352	2.9297	3.1750	9.3988	93.2904	44.5100	203	-9	-62	100564	0.64 
303.678	-0.1455	0.0586	0.9937	-4.9438	-81.5430	5.1270	2.7301	2.4829	93.3179	44.5400	191	-9	-82	100563	0.64 
303.771	-0.0068	0.0269	1.0137	-6.3477	-119.9951	7.2021	2.2577	-7.0587	93.4552	44.5500	167	-10	-110	100564	0.63 
303.881	0.2305	0.0566	0.8359	-8.9111	-145.0195	17.0288	1.0327	-20.6488	94.4385	44.5400	131	-11	-141	100564	0.63 
303.975	0.6211	-0.0020	0.9092	-14.8315	-132.9346	47.1802	-1.9171	-33.5577	97.9541	44.5600	82	-11	-166	100564	0.64 
304.099	0.5425	-0.2104	0.6636	-21.9727	-132.7515	13.3057	-8.4650	-48.1805	104.7546	44.5400	27	-8	-184	100564	0.64 
304.240	1.6118	-0.2915	0.0771	-5.3101	-107.2388	-15.0146	-14.8370	-61.9409	110.3522	44.5400	-25	-2	-189	100564	0.64 
304.302	0.5254	-0.0298	0.3965	16.1133	-13.4277	-32.3486	-9.8053	-64.5007	105.3809	44.5300	-51	-4	-181	100564	0.64 
304.490	0.7075	-0.1406	0.3364	-9.1553	59.9976	16.1743	-8.5803	-66.0333	103.5187	44.5300	-57	-8	-177	100564	0.64 
304.568	0.8896	-0.0513	0.5977	-6.7749	43.2129	4.8828	-8.8275	-61.5454	103.0957	44.5000	-47	-4	-179	100564	0.63 
304.615	0.8018	-0.1338	0.5952	-4.2725	-11.1694	1.8921	-10.3546	-59.3866	104.2712	44.5100	-33	0	-186	100564	0.64 
304.725	0.8911	-0.0781	0.3936	3.8452	-16.6626	-4.2725	-10.6842	-61.0455	104.5404	44.5000	-34	0	-183	100564	0.64 
304.880	0.9604	-0.0815	0.3774	0.0000	0.2441	3.5400	-10.5139	-62.3309	104.5349	44.5000	-37	-1	-182	100564	0.63 
304.959	0.9033	-0.0635	0.4751	-1.7090	7.8125	3.6011	-10.3601	-61.6882	104.2822	44.5000	-40	-1	-183	100564	0.64 
305.084	0.8965	-0.0786	0.4956	-0.7935	-3.7842	-2.8687	-10.5963	-61.3312	104.4141	44.5000	-37	0	-185	100563	0.64 
305.162	0.9043	-0.0615	0.4517	0.4883	-2.1973	-0.7324	-10.5359	-61.8256	104.2163	44.5000	-40	0	-183	100563	0.64 
305.287	0.8989	-0.0742	0.4556	-0.0610	1.1597	0.0000	-10.7611	-61.9629	104.4086	44.5000	-40	-2	-182	100563	0.64 
305.412	0.8882	-0.0884	0.4653	-1.2207	2.7466	4.7607	-10.9534	-61.7981	104.5953	44.4900	-39	0	-182	100564	0.64 
305.490	0.7896	-0.1025	0.5098	-1.0376	-7.3242	-5.8594	-11.7883	-61.5564	105.1666	44.4900	-38	-1	-182	100564	0.63 
305.615	0.7573	0.1064	0.2910	4.3945	-38.2690	24.0479	-10.3326	-64.6161	104.5459	44.5000	-43	0	-181	100564	0.63 
305.693	1.0879	-0.3101	0.2549	-1.0376	0.2441	20.0806	-20.0226	-64.7644	114.7632	44.5000	-51	2	-181	100564	0.64 
305.803	1.0791	-0.0562	0.2007	8.1177	45.7764	-19.7754	-16.8805	-62.9022	111.9232	44.4900	-51	-2	-178	100564	0.63 
305.912	0.8696	-0.0806	0.5083	10.3760	70.1294	-17.9443	-9.2450	-57.0850	104.1724	44.4900	-28	-5	-183	100565	0.63 
306.006	0.8711	-0.0225	0.6538	4.0283	81.1157	-24.8413	-4.9878	-49.1748	99.6899	44.5000	2	-8	-184	100565	0.63 
306.146	0.5674	-0.0293	0.8066	6.0425	97.4121	-12.5122	-2.1588	-40.7922	96.3501	44.5000	36	-8	-181	100565	0.63 
306.287	0.3965	0.0034	0.9707	9.7656	119.0186	-22.1558	0.0385	-29.7949	93.9386	44.5200	73	-10	-174	100564	0.63 
306.334	0.2832	0.0547	0.9805	2.8687	117.7979	-11.1694	1.5216	-17.7429	92.0435	44.4900	114	-12	-152	100564	0.63 
306.459	0.1025	0.0493	1.0503	-2.8076	105.2246	-6.2866	1.7688	-6.5094	91.3788	44.4800	149	-10	-122	100564	0.63 
306.537	-0.1895	0.0459	0.9546	-6.1035	82.4585	-1.2817	1.5216	2.7576	91.3403	44.4800	178	-9	-94	100564	0.63 
306.709	-0.5430	0.0195	0.8774	-4.6387	102.4170	5.9814	1.0327	12.3651	91.4447	44.4700	203	-6	-71	100564	0.63 
306.787	-0.3647	-0.0015	0.9404	-1.8311	41.8701	-10.0098	0.7031	18.9679	91.9501	44.4800	216	-8	-43	100564	0.63 
306.896	-0.4604	0.0938	0.9233	-2.6855	21.9727	0.0000	0.2802	22.1594	90.7086	44.4800	223	-7	-26	100564	0.63 
306.943	-0.4404	0.0342	0.9482	-2.5635	-11.5356	-2.1973	0.1044	23.5327	90.7855	44.4900	225	-7	-21	100564	0.63 
307.115	-0.4009	0.0029	0.9561	-4.8828	2.3804	-1.5869	-0.2856	23.0164	90.8899	44.4800	223	-4	-23	100564	0.63 
307.162	-0.4478	-0.0034	0.9678	-2.5024	0.1831	1.8921	-0.7306	23.0658	90.7635	44.5000	225	-4	-25	100564	0.64 
307.334	-0.4023	-0.0029	0.9326	-1.0986	-0.7324	3.9673	-0.7416	22.9999	91.0217	44.5100	224	-2	-23	100564	0.64 
307.428	-0.4136	0.0049	0.9575	-0.1831	-7.3853	-1.4038	-0.7855	22.7307	91.0437	44.5000	224	-4	-23	100564	0.64 
307.537	-0.3926	-0.0034	0.9399	0.6714	-13.6108	1.8311	-0.7086	21.4398	90.9998	44.5200	223	-2	-23	100563	0.64 
307.615	-0.3462	-0.0020	0.9458	0.0000	-5.0049	0.8545	-0.6262	20.6927	91.1700	44.5100	221	-3	-29	100563	0.64 
307.693	-0.3687	0.0049	0.9741	0.1221	-3.9063	1.3428	-0.5219	20.3741	91.3184	44.5300	221	-4	-32	100563	0.64 
307.788	-0.3774	-0.0010	0.9561	0.9155	-14.0381	-4.1504	-0.5109	19.7534	91.2854	44.5100	219	-3	-32	100563	0.64 
307.913	-0.3765	0.0039	0.9756	0.9155	-21.7896	1.4038	-0.4559	18.2428	91.1261	44.5300	217	-3	-33	100563	0.64 
307.991	-0.2979	-0.0195	1.0596	-0.3662	-42.0532	4.1504	-0.2802	15.4742	91.3184	44.5100	215	-4	-44	100563	0.64 
308.147	-0.2217	0.0479	0.9761	-2.6245	-60.7910	-0.5493	-0.2362	10.2448	91.6589	44.5200	206	-4	-59	100563	0.64 
308.241	-0.1577	0.0151	1.0366	-3.4180	-69.0308	-6.2866	-0.5823	4.1803	91.3843	44.5300	195	-1	-77	100563	0.64 
308.350	-0.0889	-0.0239	1.0376	-4.6387	-103.2715	8.7280	-0.8405	-4.0210	91.7139	44.5200	178	0	-100	100563	0.64 
308.413	0.1543	-0.0361	0.8848	-2.3804	-134.9487	17.3950	-1.3953	-15.6665	93.3508	44.5400	145	-3	-130	100563	0.64 
308.538	0.4609	-0.1362	0.8643	-4.3335	-145.6909	29.6631	-3.3453	-29.3280	97.0972	44.5500	104	-1	-158	100562	0.64 
308.616	0.7202	-0.1045	0.6411	-9.8877	-153.0762	12.3291	-7.6410	-43.3356	102.4640	44.5400	51	-4	-175	100563	0.64 
308.741	1.1196	-0.0889	0.1738	-9.5215	-113.3423	-7.8735	-11.8213	-57.3596	105.9961	44.5400	-5	-4	-187	100562	0.64 
308.850	1.1382	-0.2109	0.4648	2.6245	-11.9629	-24.4141	-12.2992	-63.4021	106.1938	44.5100	-41	-1	-185	100563	0.64 
308.960	0.6221	-0.0386	0.3452	-5.4321	9.3994	-5.5542	-7.9596	-64.1052	101.6071	44.5100	-48	-2	-180	100562	0.64 
309.070	0.8823	-0.1558	0.2764	-6.3477	38.8794	7.9346	-9.5856	-63.6438	102.6617	44.5000	-47	0	-180	100562	0.64 
309.179	0.7544	-0.1206	0.6821	0.9155	19.8975	3.1738	-9.7614	-60.1776	102.4091	44.5100	-36	-1	-185	100562	0.64 
309.273	0.9419	-0.0313	0.4644	-3.4790	-12.8784	3.2959	-9.2834	-60.5072	101.9476	44.4900	-31	0	-188	100562	0.64 
309.383	0.8862	-0.0996	0.4438	0.1831	-4.6387	-1.1597	-10.2777	-61.2158	102.8210	44.4900	-33	1	-182	100562	0.64 
309.476	0.9287	-0.0566	0.4443	0.4272	-3.1128	-1.2207	-9.9207	-61.8311	102.4420	44.5100	-38	1	-182	100562	0.64 
309.601	0.9985	-0.0293	0.4790	-1.8311	-5.7983	1.2207	-10.3162	-62.1552	102.7332	44.4800	-39	1	-179	100562	0.64 
309.680	0.8315	-0.0908	0.4370	-2.5024	-3.1128	5.0659	-10.8490	-62.4847	103.1506	44.5000	-39	0	-184	100562	0.64 
309.804	0.8965	-0.0737	0.4063	0.1221	-4.2114	-0.4272	-11.0468	-63.0066	103.3868	44.4900	-40	0	-181	100562	0.64 
309.945	0.8857	-0.1411	0.4800	1.2817	6.5918	-2.8687	-10.5798	-63.0286	102.9364	44.4900	-45	-1	-179	100562	0.64 
310.007	0.8799	0.0098	0.4155	0.3662	-29.3579	1.2817	-8.1738	-64.2810	100.3876	44.5000	-42	0	-181	100562	0.64 
310.179	0.6030	0.0098	0.4185	-5.8594	-28.7476	25.2686	-10.8984	-67.2363	103.2495	44.4800	-54	0	-179	100562	0.64 
310.257	0.8809	-0.2402	0.4507	4.9438	33.0200	8.9722	-14.9634	-67.7417	107.7649	44.4900	-60	2	-178	100562	0.64 
310.382	0.9453	-0.1274	0.2500	9.8267	58.2886	-21.9727	-10.1788	-64.1986	103.5846	44.4800	-52	-3	-176	100562	0.64 
310.445	0.7046	0.0249	0.7319	12.5122	97.2290	-26.7944	-1.4886	-56.8707	95.2295	44.4800	-30	-9	-181	100562	0.64 
310.554	0.7163	0.1797	0.7852	2.7466	84.0454	-17.7002	3.2849	-47.5653	90.0055	44.4800	7	-9	-184	100562	0.64 
310.648	0.4258	0.0571	0.7964	-3.6621	84.6558	-0.3052	3.3728	-38.7653	89.6045	44.4700	34	-9	-177	100562	0.64 
310.789	0.4355	0.0405	1.0024	-4.8828	108.1543	-4.5776	2.8619	-28.7457	89.5386	44.4600	72	-10	-171	100562	0.64 
310.882	0.2480	0.0850	1.0542	-6.1646	93.5669	-2.2583	2.1313	-18.5779	89.6649	44.4700	110	-9	-155	100562	0.64 
310.976	0.1802	0.0000	0.9863	-5.2490	94.4214	-3.8452	1.4392	-9.2395	90.0220	44.4500	138	-11	-135	100562	0.64 
311.085	0.0190	0.0371	0.9683	-8.0566	85.5103	-5.1880	0.8734	-0.2966	89.5825	44.4600	167	-6	-109	100562	0.64 
311.179	-0.2012	0.0493	1.0059	-6.7749	86.7920	5.0659	0.1483	8.4595	89.6210	44.4400	191	-5	-80	100563	0.64 
311.274	-0.3481	0.0166	0.9243	-2.7466	68.4814	1.1597	-0.1318	16.3037	90.2747	44.4500	209	-5	-54	100562	0.64 
311.382	-0.4878	0.0117	0.9531	-0.2441	46.1426	2.1973	0.0000	22.5110	90.3076	44.4300	221	-3	-30	100562	0.64 
311.507	-0.8164	-0.0137	1.1597	2.1973	11.5356	1.1597	0.0494	25.8179	90.3900	44.4100	228	-5	-16	100563	0.64 
311.586	-0.4214	0.0605	0.8530	2.2583	15.6860	-3.3569	0.1154	26.1639	90.0220	44.4200	231	-2	-14	100563	0.64 
311.711	-0.4546	0.0293	0.9341	-1.5869	9.7656	-1.3428	0.0824	27.7789	89.7968	44.4200	227	-2	-7	100563	0.64 
311.804	-0.5146	0.0239	0.9204	-2.8076	5.0659	1.0376	-0.0494	28.5864	89.8682	44.4000	231	-3	-5	100563	0.64 
311.898	-0.4932	0.0000	0.8716	-1.1597	1.0986	1.2817	-0.1593	28.7677	90.0549	44.4000	228	-3	-6	100563	0.64 
311.992	-0.5005	0.0088	0.9043	-0.8545	-1.5259	-0.1831	-0.1978	28.7183	90.1208	44.4000	231	-2	-4	100563	0.64 
312.101	-0.4824	0.0103	0.9082	0.1831	-2.1362	2.8687	-0.1428	28.4711	90.2692	44.3800	230	-1	-5	100564	0.64 
312.226	-0.4922	0.0054	0.9189	0.6104	-6.0425	2.8687	0.1868	28.0920	90.8185	44.4000	229	-3	-7	100564	0.64 
312.320	-0.4814	0.0103	0.9185	0.0610	-1.9531	0.1221	0.3351	27.6471	91.0437	44.3700	228	-2	-8	100564	0.64 
312.413	-0.4653	0.0054	0.9292	3.6011	6.2866	-3.4790	0.3461	27.6251	90.8679	44.3800	227	-3	-9	100564	0.64 
312.523	-0.5396	0.0205	0.9551	1.2207	-4.8828	4.0283	0.8350	27.5867	91.3788	44.3800	228	-4	-4	100564	0.64 
312.633	-0.5430	0.0293	0.9077	-0.4883	-31.6162	2.4414	1.0876	26.0321	91.8127	44.3500	229	-4	-9	100563	0.64 
312.726	-0.4810	0.0391	0.8838	1.4038	-53.7109	1.2817	1.1865	21.8683	91.8182	44.3700	222	-7	-21	100563	0.64 
312.835	-0.3130	-0.0107	0.9136	6.1035	-76.5381	27.1606	2.0929	15.6445	93.2520	44.3700	215	-7	-41	100563	0.64 
312.945	-0.1860	0.0713	0.9966	1.9531	-97.5342	13.8550	2.5818	7.1027	94.7186	44.3700	200	-14	-68	100563	0.64 
313.045	0.0029	0.0610	1.0488	-13.2446	-132.6294	18.3105	2.3181	-3.9331	96.0590	44.3800	180	-18	-94	100563	0.64 
313.155	0.3125	0.1348	0.7705	-12.0850	-171.3867	21.7896	0.9338	-19.5062	97.2125	44.3700	136	-20	-134	100563	0.64 
313.249	0.5601	-0.1284	0.8389	-13.6108	-132.9956	33.9966	-2.2028	-32.7942	101.0962	44.3900	83	-17	-164	100563	0.64 
313.359	0.8188	0.0332	0.7100	-18.4326	-126.4648	28.8086	-7.0093	-45.9833	105.8093	44.3700	37	-12	-179	100563	0.64 
313.468	1.1611	-0.1572	0.1978	-19.5313	-100.5859	-14.4653	-14.8425	-59.3866	112.4396	44.3800	-15	-7	-185	100564	0.64 
313.562	1.2803	-0.1777	0.2017	7.5073	5.7983	-13.6108	-15.5786	-65.0061	112.2748	44.3900	-48	-4	-180	100564	0.64 
313.686	0.7056	-0.1753	0.1406	-6.9580	-11.3525	7.0801	-14.3042	-64.1986	110.8136	44.3800	-52	-7	-180	100564	0.64 
313.796	0.9473	-0.0234	0.5225	-4.6387	35.2783	-4.2725	-13.3978	-62.4408	109.1382	44.3600	-47	-8	-180	100564	0.64 
313.889	0.8359	-0.1011	0.6543	-3.5400	1.2817	6.7139	-13.0737	-60.1776	108.3252	44.3700	-38	-4	-182	100564	0.64 
313.999	0.8696	-0.1104	0.4517	0.8545	-17.5781	-1.5259	-13.8153	-61.1005	109.1492	44.3800	-37	-3	-178	100564	0.64 
314.109	0.9150	-0.1362	0.3745	0.5493	-7.5073	4.5166	-14.4635	-62.4188	110.0006	44.3700	-44	-5	-179	100564	0.64 
314.218	0.9424	-0.0874	0.4570	-0.8545	6.2256	3.0518	-14.8590	-62.4023	110.3796	44.3500	-43	-3	-179	100564	0.64 
314.312	0.8584	-0.0928	0.4829	-1.1597	0.0000	-1.4648	-14.8370	-62.0013	110.1709	44.3700	-41	0	-183	100564	0.64 
314.467	0.9126	-0.1172	0.4404	-0.2441	-3.7231	3.8452	-15.0403	-62.1771	110.2203	44.3700	-45	-1	-181	100564	0.64 
314.547	0.9067	-0.1245	0.4341	0.1221	0.3052	1.3428	-15.3369	-62.4078	110.5884	44.3800	-46	-2	-182	100564	0.64 
314.625	0.8989	-0.1147	0.4468	-0.7935	0.7935	0.4883	-15.4688	-62.2925	110.6763	44.3900	-41	0	-184	100564	0.64 
314.750	0.8784	-0.1182	0.4976	-0.6714	-0.8545	-4.3335	-15.2655	-62.2650	110.2753	44.3800	-43	0	-181	100564	0.64 
314.922	0.8667	-0.0981	0.4131	-1.5259	-3.7842	2.3193	-14.3317	-62.7704	109.1711	44.3700	-41	-2	-181	100564	0.64 
315.000	0.8921	-0.0928	0.4404	-0.6104	0.6104	1.9531	-14.1998	-62.7539	108.8855	44.3800	-43	-1	-180	100564	0.64 
315.078	0.9063	-0.1025	0.4688	0.3052	0.9766	1.6479	-14.3591	-62.6495	109.0338	44.3800	-41	-2	-183	100564	0.64 
315.203	0.9209	-0.0767	0.4146	-4.8828	-2.2583	5.1270	-14.8645	-62.7209	109.4788	44.3800	-43	-3	-182	100564	0.63 
315.328	0.5747	0.1143	0.4990	-1.4038	-34.3628	-2.3804	-13.9911	-64.3140	107.9736	44.3900	-47	-1	-179	100564	0.63 
315.375	1.0703	-0.2993	0.2310	2.0752	14.9536	13.0005	-23.1757	-65.8630	118.2568	44.4100	-58	0	-179	100564	0.63 
315.516	1.0132	-0.4067	0.2358	16.6626	70.6787	-41.7480	-18.9514	-62.7155	114.4830	44.3900	-50	0	-179	100564	0.63 
315.610	0.8892	-0.0068	0.5996	16.0522	97.9004	-35.1563	-6.6962	-54.4977	102.4146	44.3900	-23	-8	-176	100564	0.63 
315.734	0.7168	0.0737	0.7588	8.8501	79.2847	-7.6294	-1.9336	-44.9121	97.7124	44.3800	15	-10	-180	100565	0.63 
315.828	0.6602	-0.0342	0.8374	1.0376	114.3799	-28.4424	0.3131	-35.4254	94.8999	44.3500	51	-16	-176	100565	0.63 
315.953	0.3364	0.0947	0.9561	4.2725	124.0845	-26.7334	2.5708	-22.8461	91.7633	44.3500	91	-17	-161	100565	0.63 
316.016	0.1929	0.0400	0.9961	-4.3945	120.5444	-14.8315	2.7905	-10.3436	90.6921	44.3600	131	-15	-135	100565	0.63 
316.141	-0.0913	0.0879	1.0137	-7.4463	96.0083	-15.9912	2.2028	0.5164	89.7693	44.3500	171	-14	-103	100565	0.63 
316.234	-0.3184	0.0205	0.9590	-0.6104	77.9419	-3.7231	1.8622	9.1022	89.4122	44.3500	192	-6	-75	100565	0.63 
316.344	-0.4688	0.0415	0.9351	-3.1128	79.1626	-9.8877	1.5381	17.4628	88.9398	44.3400	211	-3	-51	100565	0.63 
316.469	-0.4478	0.0127	0.9653	-1.4038	47.2412	2.1973	0.8679	24.3127	87.9840	44.3500	223	1	-24	100564	0.63 
316.563	-0.5669	0.0571	0.8584	2.3193	27.0386	-0.6714	0.8514	28.3777	87.1875	44.3300	226	1	-7	100565	0.63 
316.641	-0.5415	0.0347	0.8535	0.4272	10.5591	0.3662	1.1646	30.3662	87.7972	44.3600	229	1	-3	100565	0.63 
316.766	-0.5850	0.0386	0.8760	0.2441	-1.4038	-2.5024	1.2689	30.8386	87.8961	44.3600	229	3	2	100565	0.63 
316.844	-0.5132	0.0386	0.8784	1.0376	-11.3525	-3.2349	1.1371	30.3442	87.5281	44.3500	228	3	-1	100565	0.63 
316.969	-0.4985	0.0107	0.8843	-1.1597	-7.3853	-0.9766	0.9393	29.3939	87.2369	44.3500	230	2	0	100565	0.63 
317.048	-0.4844	0.0166	0.8911	-1.6479	-5.9204	1.0986	0.8130	28.8171	87.3798	44.3600	230	6	-1	100565	0.63 
317.172	-0.4878	0.0273	0.8994	-1.2207	-2.6855	1.0986	0.8240	28.3887	87.5610	44.3500	229	4	-7	100564	0.63 
317.251	-0.4946	0.0244	0.9092	-0.9155	0.0610	1.4038	0.7800	28.1909	87.6434	44.3500	227	4	-2	100565	0.63 
317.376	-0.4810	0.0210	0.9106	-0.5493	0.7935	1.6479	0.7690	28.1799	87.7039	44.3700	227	5	-6	100565	0.63 
317.470