StartTime: 2017-07-14 14:11:10.644
Time(s)	ax(g)	ay(g)	az(g)	wx(deg/s)	wy(deg/s)	wz(deg/s)	AngleX(deg)	AngleY(deg)	AngleZ(deg)	T(°)	hx	hy	hz	Pressure(Pa)	Altitude(m) 
63.894	-0.0942	-0.0107	1.0244	-0.6714	2.0752	2.3193	-0.5988	6.0919	176.9183	45.4000	30	-176	-147	100545	0.65 
64.020	-0.0864	-0.0259	1.0532	-0.8545	1.5869	2.4414	-0.6372	6.2238	177.0117	45.4000	26	-172	-145	100545	0.65 
64.129	-0.0640	-0.0269	1.0332	-1.9531	3.6011	3.4790	-0.8020	6.0919	177.0007	45.4100	25	-172	-146	100545	0.65 
64.223	-0.1060	-0.0791	1.0356	0.1221	4.6387	-2.0752	-1.0767	6.3171	177.0667	45.4000	28	-172	-148	100545	0.65 
64.317	-0.1030	-0.0669	0.8916	-2.8687	3.2959	-23.6206	-1.6754	6.6083	175.3912	45.4200	31	-175	-148	100544	0.65 
64.395	-0.2979	0.1929	1.1030	-4.0894	21.6064	29.9072	-1.6479	9.1461	175.3693	45.4000	41	-171	-146	100544	0.65 
64.520	-0.0649	0.1719	0.9478	11.1694	-4.8218	-23.9868	-1.5656	8.7451	174.9628	45.4100	40	-172	-146	100545	0.65 
64.629	-0.1226	0.0571	0.9810	-2.5024	-7.9346	-7.6294	-0.8075	8.8824	174.0454	45.4200	38	-174	-145	100544	0.65 
64.708	0.1572	0.1362	0.6440	-1.6479	-16.0522	-59.2651	-2.2247	5.8612	170.6232	45.4200	38	-173	-147	100544	0.65 
64.848	-0.1143	-0.0005	1.0557	-7.8735	-2.0752	12.7563	-3.1311	3.6694	168.0084	45.4000	41	-167	-151	100544	0.65 
64.911	-0.1846	0.0361	1.4858	-4.1504	-27.6489	13.3057	-1.8622	7.1466	171.0022	45.4100	36	-170	-152	100544	0.65 
65.036	0.2417	-0.1655	0.4424	-7.5684	-8.2397	-14.4043	-3.8782	4.4440	172.4579	45.4100	22	-170	-153	100544	0.65 
65.145	0.1226	-0.1563	0.4678	-6.5918	-7.5073	50.4761	-4.2572	5.6854	175.4187	45.4100	16	-168	-154	100544	0.65 
65.239	0.4976	-0.5630	0.5117	16.8457	-28.1372	27.0386	-4.5923	3.7573	-179.8846	45.4000	-6	-170	-154	100544	0.65 
65.332	-0.4731	-0.2085	1.9307	-2.7466	11.7188	-14.7705	-3.1146	3.7793	178.6981	45.4100	-14	-176	-147	100544	0.65 
65.442	-0.0786	0.3848	1.4702	27.8931	-3.7231	-28.3203	-2.0709	3.0872	174.3695	45.4100	-8	-183	-145	100545	0.65 
65.536	-0.0498	-0.1108	0.6382	-5.2490	10.0708	4.2725	-1.1755	1.9501	175.0507	45.3900	-2	-185	-142	100545	0.65 
65.676	-0.1436	-0.0615	0.7588	1.2817	-0.6714	-27.6489	-1.9226	4.4275	173.2709	45.4000	3	-185	-135	100545	0.65 
65.754	-0.1074	-0.1392	0.6338	-16.4185	-0.4883	-16.9678	-1.4227	2.4774	169.9036	45.3900	15	-187	-136	100546	0.65 
65.833	-0.3135	-0.1924	2.1113	7.7515	31.6772	-21.8506	-1.7084	6.6412	171.8756	45.4000	18	-188	-134	100546	0.65 
65.926	0.0518	-0.1382	0.8618	0.6104	-25.4517	-29.9683	-2.3456	4.6143	171.2604	45.3800	15	-189	-136	100546	0.65 
66.067	0.0366	-0.1040	0.2559	-2.8076	-17.5171	17.5781	-1.9501	2.1698	171.7548	45.3900	14	-187	-132	100547	0.65 
66.146	-0.0532	-0.2383	0.8906	-10.0708	-16.5405	28.0151	-2.5818	1.1426	174.2487	45.3600	6	-189	-130	100547	0.65 
66.254	0.3027	0.6641	1.2646	-4.2725	10.4980	-12.2681	-4.2352	1.3568	172.8644	45.3800	2	-185	-135	100548	0.65 
66.379	0.1548	0.3604	1.3530	-2.0142	13.9771	43.5791	-4.2572	1.4063	176.1932	45.3800	-1	-184	-138	100549	0.65 
66.458	-0.1328	-0.0557	0.3325	9.9487	45.1660	-1.2817	-3.7628	2.1313	179.9945	45.3800	-15	-186	-133	100549	0.65 
66.583	0.0620	0.0840	0.4360	3.8452	0.5493	-29.9072	-3.3728	3.3014	178.5883	45.3800	-7	-188	-134	100550	0.65 
66.661	-0.6953	0.5205	2.4712	27.9541	88.0737	0.4883	-3.0322	6.9653	174.7760	45.3700	11	-188	-131	100550	0.65 
66.771	0.4224	-0.4023	0.9990	-5.6152	-10.1929	-40.4053	-3.9001	5.5426	177.0282	45.3700	17	-188	-125	100551	0.65 
66.880	-0.0654	0.1841	0.2817	-13.8550	-2.3193	31.4941	-3.8837	5.2625	175.6824	45.3600	23	-185	-124	100551	0.65 
66.958	-0.0996	-0.1348	0.6255	-14.9536	-8.6670	56.7627	-4.4659	4.9768	-179.2090	45.3500	16	-181	-130	100552	0.65 
67.098	-0.7368	0.1748	2.6128	-9.0942	42.1143	-3.4790	-4.8779	8.5199	-177.8412	45.3600	9	-180	-126	100552	0.64 
67.161	-0.0112	-0.0562	1.1401	-8.0566	15.0757	34.8511	-4.3671	6.1139	-178.4454	45.3500	13	-180	-124	100553	0.64 
67.286	-0.0283	-0.1704	0.5596	1.2207	-12.1460	-22.7051	-3.6145	5.5316	-178.1543	45.3500	5	-177	-123	100553	0.64 
67.380	-0.1577	0.0581	0.2769	-4.3945	-39.1235	0.0610	-3.0817	0.5713	178.1873	45.3600	11	-179	-122	100553	0.64 
67.474	-1.2236	0.4072	3.1021	23.4985	66.5894	19.2871	-2.0270	6.1523	177.5226	45.3600	20	-179	-114	100554	0.64 
67.583	-0.2637	-0.0195	0.8608	-9.3994	-12.0850	-8.7891	-2.8290	4.2792	177.9456	45.3400	19	-180	-112	100555	0.64 
67.692	0.0371	-0.1235	0.4609	2.6245	-52.6123	13.9160	-3.8892	2.1588	178.6157	45.3600	18	-180	-116	100555	0.64 
67.801	-0.0645	0.1890	0.5825	26.9775	-13.0615	-76.7212	-3.1311	-1.6754	176.0614	45.3400	14	-180	-112	100555	0.64 
67.895	-0.0103	-0.0205	1.3638	-19.2871	-0.6104	17.4561	-3.7573	1.3843	173.7708	45.3300	31	-178	-111	100555	0.64 
68.020	0.2695	-0.2378	0.6646	-0.3052	-33.4473	36.1938	-4.6198	0.6757	176.7480	45.3400	31	-177	-115	100556	0.64 
68.098	0.0190	0.1143	0.4824	6.5308	12.5732	-19.1040	-3.7024	1.1261	174.9188	45.3400	28	-176	-110	100556	0.64 
68.193	-0.1865	-0.3042	0.8228	-23.0713	20.8740	-3.0518	-3.5760	2.1478	172.7051	45.3300	36	-177	-108	100557	0.64 
68.317	-0.0674	0.3950	1.1396	-5.1270	-16.7847	12.4512	-2.4719	6.6302	172.5403	45.3300	49	-176	-105	100557	0.64 
68.427	0.4336	-0.3550	0.7852	-5.8594	6.4087	-24.2310	-4.0375	8.1134	174.9902	45.3100	48	-175	-99	100557	0.64 
68.520	0.1118	-0.1240	0.6753	5.1270	-27.8931	32.2876	-3.8177	7.8442	175.5670	45.3300	44	-172	-101	100558	0.64 
68.614	-0.4795	-0.2236	1.1543	14.4043	3.6621	38.9404	-2.7850	7.3114	177.1985	45.3200	34	-174	-100	100558	0.64 
68.708	-0.8169	0.5991	2.5684	0.4883	25.3296	12.0239	-2.1368	9.4427	177.0941	45.3200	37	-176	-89	100559	0.64 
68.817	-0.1338	0.2905	1.2314	-0.4272	-6.6528	11.5967	-1.4282	5.2515	176.8414	45.3200	33	-176	-86	100560	0.64 
68.912	-0.1157	-0.0825	0.5259	-5.0659	4.2114	-31.0669	-1.7468	5.0208	175.7538	45.3200	29	-176	-86	100561	0.64 
69.007	-0.0581	0.1885	0.7007	-13.0615	-21.6064	-20.2637	-2.3895	3.0981	171.6943	45.3200	40	-171	-87	100561	0.64 
69.131	-0.7041	-0.0010	2.0132	9.7046	36.5601	33.6304	-2.6257	6.3171	172.2327	45.3200	46	-170	-84	100562	0.64 
69.240	0.3242	-0.1914	0.9556	-7.9346	-0.1221	-26.9775	-2.7081	5.0317	174.0454	45.3100	41	-169	-79	100562	0.64 
69.334	-0.0469	0.1040	0.3813	-13.5498	-1.4648	8.8501	-3.3508	5.4053	171.9415	45.3100	47	-166	-81	100563	0.64 
69.444	0.0137	-0.3066	0.3901	-12.0239	-18.6157	57.1289	-3.9990	5.4053	176.5063	45.2900	40	-164	-84	100563	0.64 
69.537	-0.5542	0.0166	1.6479	-13.4277	53.5278	-17.8223	-4.0759	5.9711	177.5336	45.2900	29	-166	-77	100563	0.64 
69.632	0.5596	-0.0879	0.8501	11.4746	-49.3164	5.5542	-3.9276	5.2295	176.6821	45.3000	34	-163	-80	100564	0.64 
69.740	-0.0288	0.0234	0.4565	0.6714	11.8408	9.7656	-2.7466	5.0537	178.5663	45.3000	29	-167	-75	100564	0.63 
69.835	-0.0459	-0.0625	0.4019	-11.4136	15.7471	-26.3062	-3.9056	5.5591	177.4677	45.3000	28	-168	-73	100565	0.63 
69.975	-0.5669	-0.4717	1.4976	37.1094	63.2324	-73.2422	-4.3671	6.4709	171.8262	45.2900	45	-163	-72	100565	0.63 
70.053	0.1914	-0.5513	1.4214	-1.2817	-49.0112	28.9307	-1.6919	6.6028	173.9246	45.3000	57	-166	-56	100566	0.63 
70.147	-0.0674	-0.0103	0.5859	-2.6245	-0.3052	27.6489	-1.2140	4.5099	173.1995	45.2900	53	-167	-53	100566	0.63 
70.256	-0.0298	-0.0977	0.4336	-7.2632	-0.3052	79.1626	-0.9393	2.6038	176.9403	45.2900	49	-167	-55	100567	0.63 
70.365	-1.2700	0.0132	3.0322	-39.9170	10.7422	-38.3911	-2.9938	6.6357	-179.2035	45.2900	42	-171	-61	100567	0.63 
70.475	-0.3735	0.2295	1.2393	7.8125	0.6104	-5.1880	-3.0212	4.0320	178.5388	45.2900	41	-166	-62	100567	0.63 
70.569	-0.0151	-0.0190	0.4648	6.5918	-12.4512	-21.5454	-1.4063	2.5983	177.3248	45.2700	41	-168	-61	100568	0.63 
70.678	-0.1860	0.0762	1.2412	-8.7891	5.7373	-23.7427	-1.5326	2.6422	174.1003	45.2700	54	-164	-62	100568	0.63 
70.772	0.3735	-0.1382	0.5093	4.9438	8.1177	-2.6855	-1.1865	0.7745	174.7595	45.2800	53	-164	-63	100568	0.63 
70.881	-0.1875	0.0757	1.0117	-0.1831	6.1035	17.1509	-0.3076	2.9993	173.4412	45.2900	57	-169	-61	100568	0.63 
70.959	-0.1006	0.0068	1.0146	1.5259	11.2915	15.6250	0.1648	4.0320	174.5728	45.2800	52	-172	-59	100568	0.63 
71.069	-0.0874	0.0083	1.0381	2.6245	-0.7324	7.9956	0.3021	4.7736	175.5615	45.2700	49	-168	-57	100569	0.63 
71.209	-0.0898	0.0034	1.0532	0.3662	0.7935	-6.7139	0.3186	4.9219	175.0397	45.2900	47	-169	-57	100569	0.63 
71.287	-0.0996	0.0215	1.0254	-1.2817	-0.4272	-1.7090	0.3131	4.9933	173.9301	45.3000	51	-166	-58	100569	0.63 
71.381