StartTime: 2017-07-12 12:08:11.416
Time(s)	ax(g)	ay(g)	az(g)	wx(deg/s)	wy(deg/s)	wz(deg/s)	AngleX(deg)	AngleY(deg)	AngleZ(deg)	T(°)	hx	hy	hz	Pressure(Pa)	Altitude(m) 
1371.928	-1.6021	-0.0098	1.6792	-0.3052	0.0610	0.9155	0.6757	43.5883	101.1676	40.4000	-72	-13	190	100943	0.32 
1372.053	-1.6040	-0.0078	1.6846	-0.3662	0.3052	0.5493	0.6372	43.6322	101.1786	40.3900	-73	-17	185	100943	0.32 
1372.132	-1.6011	-0.0073	1.6782	-0.4883	-0.1831	0.9155	0.6262	43.6267	101.3269	40.3900	-71	-15	191	100943	0.32 
1372.257	-1.6021	-0.0029	1.6870	-1.5259	-0.6104	1.8921	0.6097	43.6432	101.4148	40.3900	-73	-14	190	100943	0.32 
1372.335	-1.6040	-0.0142	1.6807	-1.2207	-0.1831	2.6245	0.6372	43.6157	101.5796	40.4000	-70	-13	190	100942	0.32 
1372.460	-1.6006	-0.0122	1.6694	-1.0986	0.4883	2.5635	0.7086	43.5828	101.7773	40.3900	-67	-15	189	100943	0.32 
1372.585	-1.6113	-0.0176	1.6777	-0.6714	1.3428	1.2817	0.7141	43.7146	101.8378	40.3800	-66	-14	191	100942	0.32 
1372.663	-1.6289	-0.0015	1.6714	-1.2817	0.0610	2.4414	0.6921	43.7915	101.7938	40.4100	-64	-12	189	100942	0.32 
1372.773	-1.6104	-0.0229	1.6680	-2.5635	1.7090	6.1035	0.9338	43.8959	102.4146	40.4100	-67	-14	192	100942	0.32 
1372.897	-1.6074	-0.0034	1.6685	-1.0986	0.6714	3.4790	1.0822	44.0387	102.7277	40.4200	-69	-16	193	100942	0.32 
1372.975	-1.6021	0.0020	1.6670	-1.8921	-0.4883	4.4556	1.2195	44.0222	103.0188	40.3900	-64	-13	191	100942	0.32 
1373.100	-1.6074	0.0000	1.6807	-1.3428	-1.3428	1.0376	1.2250	43.9014	103.0573	40.4200	-69	-13	192	100942	0.32 
1373.241	-1.6079	-0.0122	1.6699	-1.1597	0.4272	2.9297	1.2854	43.7421	103.2495	40.4300	-66	-15	191	100942	0.32 
1373.288	-1.6128	-0.0059	1.6719	0.7324	-1.5869	2.2583	1.3458	43.6597	103.1122	40.4100	-69	-12	193	100942	0.32 
1373.413	-1.6084	-0.0044	1.6885	-0.3662	-2.0752	2.3193	1.5326	43.4344	103.1232	40.4200	-68	-12	191	100942	0.32 
1373.523	-1.5947	-0.0078	1.6587	1.7700	-3.0518	1.8921	1.7798	43.1653	103.2275	40.4200	-67	-14	194	100942	0.32 
1373.679	-1.5967	0.0127	1.6714	0.3662	-2.9907	3.2959	2.0380	43.0115	103.3868	40.4200	-73	-15	192	100942	0.32 
1373.726	-1.6172	-0.0010	1.6572	-2.3193	-3.4790	7.8735	2.3236	42.7808	103.9966	40.4400	-73	-14	189	100942	0.32 
1373.897	-1.6299	-0.0078	1.6392	-4.0894	-1.5869	9.5215	2.6971	42.5720	104.8865	40.4400	-71	-11	191	100942	0.32 
1373.975	-1.6147	0.0166	1.5200	-9.8877	14.9536	13.4888	3.3344	43.0884	106.3092	40.4300	-71	-12	193	100942	0.32 
1374.100	-1.5430	-0.0361	1.5566	-24.2310	31.4941	-1.7700	2.3456	45.6757	107.1497	40.4400	-68	-9	192	100942	0.32 
1374.179	-1.6885	-0.0054	1.7246	-15.5640	10.4370	-12.3291	-0.5713	47.6147	104.5624	40.4400	-61	-5	197	100942	0.32 
1374.273	-1.6089	-0.0547	1.7236	-14.4043	-4.8828	-12.8174	-2.9993	46.9885	102.4420	40.4500	-66	-1	195	100942	0.32 
1374.367	-1.5400	-0.0596	1.6147	-6.1646	-38.7573	-2.0142	-3.8947	44.2694	100.9204	40.4400	-67	-1	196	100942	0.32 
1374.507	-1.6841	-0.1182	1.8833	8.5449	-65.5518	-5.4932	-3.6804	39.6112	100.0360	40.4500	-78	0	196	100942	0.32 
1374.617	-1.4468	0.1299	2.0347	10.0708	-90.4541	13.1836	-1.3678	30.2563	100.9039	40.4400	-98	-3	196	100942	0.32 
1374.698	-1.1094	-0.1260	1.6914	14.4653	-37.0483	13.7329	0.2747	25.8069	102.1344	40.4400	-117	-7	206	100943	0.32 
1374.807	-1.2646	-0.0264	1.9702	-2.6245	-40.4053	16.2354	1.3733	22.6868	103.3923	40.4400	-126	-8	210	100944	0.32 
1374.901	-1.1440	-0.0688	1.8486	1.7700	-28.8086	0.7324	1.1096	19.4678	105.5127	40.4300	-134	-9	214	100944	0.32 
1375.026	-1.1113	-0.0166	1.8794	-1.5869	-22.0337	-4.6387	0.3845	17.2980	110.9564	40.4300	-141	-8	217	100944	0.32 
1375.105	-1.1025	0.0273	1.8999	4.5776	-23.4985	-0.9155	-0.2966	15.5127	116.0596	40.4400	-145	-13	224	100944	0.32 
1375.214	-1.0537	0.0078	1.8887	4.5166	-20.6909	3.5400	-0.5823	13.8977	121.7999	40.4200	-150	-14	225	100944	0.32 
1375.307	-1.0151	-0.0024	1.8926	3.4180	-17.4561	4.8218	-0.8020	12.5519	127.7710	40.4100	-155	-16	226	100945	0.32 
1375.479	-0.9502	0.0093	1.8506	3.5400	-18.3105	1.8921	-1.1481	11.2610	133.6542	40.4200	-155	-12	229	100944	0.32 
1375.542	-0.8379	0.0337	1.8647	0.3662	2.9297	-3.6011	-1.6754	11.1786	139.2352	40.4300	-157	-15	231	100945	0.32 
1375.636	-1.0186	0.0195	1.9136	-0.2441	6.4697	0.2441	-2.3016	12.5903	144.2450	40.4300	-156	-13	231	100945	0.32 
1375.714	-1.0449	0.0186	1.8950	-0.1831	-9.8267	-2.2583	-2.9608	13.1287	149.1833	40.4300	-157	-13	231	100945	0.32 
1375.839	-0.9360	0.0195	1.8804	0.0610	-3.7842	4.5776	-3.4167	13.3044	154.0887	40.4400	-159	-15	235	100945	0.32 
1375.964	-0.9805	0.0176	1.8931	0.4272	-5.7983	1.4038	-3.7354	13.7054	158.9941	40.4400	-164	-17	232	100945	0.32 
1376.089	-0.9609	0.0103	1.8931	1.3428	-0.3052	1.4038	-3.9496	14.1064	163.8446	40.4200	-165	-15	235	100945	0.32 
1376.136	-0.9365	0.0356	1.8789	1.4038	-3.3569	1.9531	-4.0265	14.5844	168.2227	40.4200	-160	-17	235	100945	0.32 
1376.308	-0.9595	0.0439	1.8916	-1.0376	-2.1973	-0.4883	-4.1254	15.1556	171.9745	40.4400	-160	-18	234	100945	0.32 
1376.354	-0.9063	0.0029	1.8730	-3.1738	-1.7090	2.1362	-4.4440	15.6665	175.6110	40.4300	-161	-17	231	100945	0.32 
1376.464	-0.9385	-0.0015	1.8931	-0.3662	0.3052	1.5869	-4.7021	16.3367	179.6814	40.4200	-167	-22	234	100945	0.32 
1376.573	-0.9419	0.0161	1.8809	1.0376	-0.1831	2.1973	-4.6747	17.0068	-176.5668	40.4200	-162	-14	232	100945	0.32 
1376.668	-0.9526	0.0327	1.8950	0.2441	0.7935	0.1831	-4.5923	17.7319	-172.9413	40.4100	-162	-12	232	100945	0.32 
1376.761	-0.9380	0.0234	1.8896	-0.8545	2.0752	0.7935	-4.5758	18.3801	-169.5081	40.4200	-162	-12	230	100945	0.32 
1376.933	-0.9487	0.0137	1.8940	0.4272	1.5869	0.8545	-4.5703	19.0942	-166.0309	40.4100	-160	-12	232	100945	0.32 
1376.995	-0.9482	0.0342	1.8916	0.2441	1.3428	0.6714	-4.4000	19.6820	-162.9382	40.4200	-157	-13	234	100945	0.32 
1377.073	-0.9492	0.0229	1.8857	-1.2817	1.3428	0.6104	-4.3121	20.2478	-160.3729	40.4100	-157	-12	232	100945	0.32 
1377.214	-0.9570	0.0166	1.8950	-0.7935	0.4272	0.7935	-4.2957	20.7971	-157.6538	40.3900	-160	-15	232	100945	0.32 
1377.308	-0.9487	0.0186	1.8906	-0.1221	0.4883	1.2207	-4.1583	21.2311	-155.0775	40.4000	-160	-12	232	100944	0.32 
1377.417	-0.9443	0.0229	1.8833	-0.1221	-0.4272	0.5493	-4.0100	21.6211	-152.5507	40.4100	-161	-12	230	100945	0.32 
1377.480	-0.9556	0.0239	1.8936	0.0000	0.3662	0.8545	-3.8452	22.0276	-150.1227	40.4200	-161	-12	233	100945	0.32 
1377.605	-0.9663	0.0215	1.8916	0.0000	-2.3804	0.7324	-3.6639	22.3572	-147.9309	40.4100	-158	-13	236	100945	0.32 
1377.714	-0.9365	0.0200	1.8882	-0.3052	0.5493	0.6714	-3.5211	22.5769	-145.9259	40.4100	-158	-15	235	100946	0.32 
1377.808	-0.9517	0.0254	1.8843	0.0610	-0.1221	1.0376	-3.3344	22.9285	-143.9703	40.4200	-160	-13	236	100945	0.32 
1377.933	-0.9507	0.0254	1.8901	0.0610	-0.5493	0.9766	-3.1311	23.2086	-142.1191	40.4300	-156	-12	232	100945	0.32 
1378.042	-0.9526	0.0229	1.8926	-0.2441	0.6104	0.8545	-2.9443	23.4723	-140.5865	40.4300	-159	-15	235	100945	0.32 
1378.120	-0.9707	0.0234	1.8672	-0.6714	4.5776	0.2441	-2.7740	23.8623	-138.9716	40.4400	-160	-15	233	100945	0.32 
1378.230	-0.9766	0.0244	1.8960	-4.6387	8.0566	2.6855	-2.8180	24.7083	-137.8290	40.4500	-158	-16	235	100945	0.32 
1378.347	-0.9082	0.0293	1.8618	-2.5024	1.3428	3.2349	-2.8235	25.1312	-136.1041	40.4500	-156	-12	230	100945	0.32 
1378.441	-0.9448	0.0039	1.8711	-3.7231	7.3853	0.5493	-2.9553	25.8344	-134.4232	40.4600	-154	-9	232	100945	0.32 
1378.566	-0.9673	-0.0049	1.8652	-4.0894	17.8833	-1.9531	-3.2739	27.2845	-132.6874	40.4600	-154	-6	230	100946	0.32 
1378.644	-1.0010	-0.0059	1.8647	-3.5400	20.5078	-0.9766	-3.6639	29.3335	-131.2756	40.4500	-151	-7	228	100945	0.32 
1378.769	-1.0210	0.0005	1.8682	-4.8218	33.7524	-0.7324	-3.9716	32.0087	-129.9902	40.4600	-147	-8	223	100945	0.32 
1378.848	-1.1147	-0.0425	1.8711	-3.8452	66.5894	-3.7231	-4.5209	36.6559	-129.3640	40.4500	-139	-7	218	100946	0.32 
1378.972	-1.3579	-0.0278	1.9121	-3.3569	95.7642	-5.1270	-6.0754	44.3518	-135.0055	40.4400	-127	-7	212	100946	0.32 
1379.081	-1.5459	-0.0493	1.8745	-4.2725	55.4810	-11.1084	-9.3988	52.0093	-144.6899	40.4400	-101	-6	203	100947	0.32 
1379.175	-1.5835	-0.0942	1.7920	-0.1831	39.3677	-10.5591	-13.2001	55.5798	-154.7864	40.4200	-86	-4	197	100947	0.32 
1379.285	-1.6919	-0.0571	1.7622	9.8877	20.8130	-13.1836	-17.6715	57.5464	-166.2616	40.4200	-78	-3	198	100947	0.31 
1379.379	-1.5688	-0.0591	1.6255	11.7188	9.5215	3.6621	-17.9462	57.2937	-173.4851	40.4200	-75	-4	197	100947	0.31 
1379.519	-1.6035	-0.0449	1.6509	5.0049	11.1694	10.8032	-17.0343	57.8540	-178.6707	40.3900	-74	-3	195	100947	0.31 
1379.613	-1.6392	-0.0337	1.6245	6.5308	1.7090	13.1836	-15.4468	57.9199	177.4072	40.4100	-66	-4	201	100947	0.31 
1379.691	-1.6226	0.0181	1.5811	9.7046	-7.5073	4.3335	-13.2440	56.8982	173.9850	40.4100	-64	-6	197	100947	0.31 
1379.816	-1.5972	-0.0054	1.5762	4.9438	-11.2915	9.3384	-11.1676	55.3546	170.9857	40.4100	-62	-12	195	100947	0.31 
1379.972	-1.6265	0.0127	1.6099	3.4790	-4.6387	4.0894	-9.7174	54.1626	167.9041	40.4000	-64	-12	195	100947	0.31 
1380.050	-1.5947	0.0239	1.6055	3.7842	-4.2725	1.4648	-8.8275	53.1244	164.3225	40.3900	-62	-12	194	100946	0.32 
1380.128	-1.5923	0.0347	1.6362	2.6245	3.2959	-1.1597	-8.5858	52.5751	160.1917	40.4200	-63	-13	199	100946	0.32 
1380.238	-1.6123	0.0479	1.6763	-0.1831	5.4932	-1.8921	-8.6407	52.4762	156.2311	40.4200	-62	-13	196	100945	0.32 
1380.378	-1.6646	0.0518	1.5977	-5.1880	16.5405	-3.3569	-9.4702	52.8827	152.1112	40.4200	-58	-16	195	100945	0.32 
1380.441	-1.6646	0.0410	1.6865	-2.5024	-20.7520	7.8125	-9.1516	52.2180	149.5459	40.4100	-56	-13	198	100945	0.32 
1380.597	-1.5889	-0.0112	1.6484	3.2959	-4.4556	-3.8452	-8.2727	50.3448	147.1729	40.4200	-57	-13	200	100944	0.32 
1380.675	-1.6182	0.0576	1.6826	1.5869	-4.3335	-1.9531	-8.1519	49.5374	143.7506	40.4000	-60	-17	197	100944	0.32 
1380.785	-1.6206	0.0444	1.6899	-1.7090	-7.2632	1.0986	-7.8168	48.6365	141.3885	40.4200	-61	-18	195	100944	0.32 
1380.879	-1.5781	0.0229	1.6768	-0.3052	-6.7749	1.5259	-7.1796	47.3401	139.6472	40.4200	-69	-17	194	100944	0.32 
1381.003	-1.5669	0.0332	1.7017	0.9766	-3.0518	-0.4883	-6.7126	46.5820	137.5653	40.4200	-72	-16	193	100943	0.32 
1381.113	-1.5708	0.0444	1.6948	2.1973	-1.8921	0.4883	-6.1853	46.0767	135.7196	40.4200	-70	-18	194	100943	0.32 
1381.207	-1.5742	0.0273	1.6807	10.1929	-0.1831	-0.1831	-5.1910	45.7471	134.1376	40.4200	-73	-20	195	100944	0.32 
1381.319	-1.5542	0.1162	1.7446	7.6904	-9.5825	2.4414	-3.4827	44.9945	133.0115	40.4200	-73	-24	192	100944	0.32 
1381.412	-1.5356	-0.0439	1.6143	11.7188	8.9722	-4.4556	-2.5543	44.7858	131.8964	40.4300	-79	-27	194	100943	0.32 
1381.522	-1.5850	0.0889	1.7627	18.3105	-4.7607	-6.1646	-1.1041	45.0714	129.8309	40.4100	-78	-30	191	100943	0.32 
1381.647	-1.5645	0.1045	1.7480	-6.9580	1.0986	-6.1646	-0.9723	45.0110	128.6884	40.4200	-80	-37	192	100944	0.32 
1381.726	-1.5483	0.0635	1.6821	-3.5400	6.7139	-3.4790	-2.0050	44.9945	127.6996	40.4100	-80	-38	193	100944	0.32 
1381.866	-1.5762	0.0425	1.7256	0.8545	0.0610	-0.4272	-1.8732	45.1813	127.2052	40.4300	-80	-35	191	100944	0.32 
1381.991	-1.5986	0.0605	1.7139	-3.2349	0.0610	-3.6621	-2.0490	44.9396	126.3043	40.4100	-79	-36	190	100944	0.32 
1382.069	-1.5864	0.0474	1.6909	-8.5449	-2.4414	-0.3662	-2.5433	44.6320	125.7715	40.4300	-78	-35	191	100944	0.32 
1382.163	-1.5645	0.0215	1.6782	-3.1128	-5.4932	-0.4272	-2.9279	44.0662	125.3265	40.4100	-81	-34	195	100944	0.32 
1382.272	-1.5840	-0.0044	1.6895	6.1646	-1.1597	-6.8970	-2.7740	43.7366	124.4257	40.4100	-79	-33	200	100944	0.32 
1382.413	-1.5581	0.0381	1.6455	9.1553	8.3618	-16.3574	-2.9333	43.8519	122.2284	40.4200	-81	-38	196	100945	0.32 
1382.491	-1.6709	0.0601	1.7036	0.6714	14.9536	-7.0801	-3.3289	45.4559	120.5090	40.4300	-81	-39	195	100945	0.32 
1382.631	-1.6060	0.0493	1.7046	-5.1880	3.5400	7.0190	-3.1586	46.0107	120.6079	40.4200	-76	-35	195	100945	0.32 
1382.694	-1.5830	0.0186	1.6694	-7.7515	-3.6621	17.5781	-2.3181	45.6921	122.2998	40.4100	-78	-37	194	100945	0.32 
1382.835	-1.6328	-0.0083	1.6519	-0.4883	-2.3804	7.2021	-1.1536	45.3241	123.9203	40.4200	-76	-38	197	100945	0.32 
1382.944	-1.5952	-0.0010	1.6899	11.2305	2.1362	-25.5127	-1.5765	45.3790	121.8219	40.4200	-79	-37	198	100945	0.32 
1383.006	-1.5400	0.0415	1.6836	2.1973	-0.0610	-6.1035	-2.6312	45.1208	118.9929	40.4300	-82	-41	194	100945	0.32 
1383.132	-1.5669	0.0273	1.6455	7.3242	-6.9580	6.6528	-1.8347	44.8187	119.5367	40.4400	-85	-40	194	100945	0.32 
1383.256	-1.6499	0.0303	1.6855	8.5449	-7.2632	-26.7334	-1.5161	45.2252	118.7018	40.4200	-82	-41	194	100944	0.32 
1383.351	-1.6592	0.0151	1.7539	8.7280	6.5918	3.7231	-1.3348	44.9725	117.5867	40.4400	-82	-41	192	100944	0.32 
1383.475	-1.6045	0.0483	1.6826	11.7798	-4.6387	-11.0474	-0.8514	44.6100	117.3065	40.4500	-84	-47	188	100945	0.32 
1383.585	-1.5869	0.0986	1.6875	8.0566	-0.9766	-4.5166	-0.3845	44.0442	116.9604	40.4100	-86	-50	189	100944	0.32 
1383.678	-1.6191	0.0586	1.7026	2.4414	-3.2349	-0.8545	0.0439	43.8190	117.6471	40.4300	-89	-50	185	100945	0.32 
1383.788	-1.5459	0.0815	1.6865	-1.5259	-6.2866	1.6479	0.2362	43.2037	118.6304	40.4300	-93	-51	190	100944	0.32 
1383.897	-1.5923	0.0649	1.6929	-3.4180	-0.7324	4.0283	0.4395	42.9016	120.0861	40.4300	-91	-52	187	100944	0.32 
1383.998