StartTime: 2017-07-14 14:15:41.614
Time(s)	ax(g)	ay(g)	az(g)	wx(deg/s)	wy(deg/s)	wz(deg/s)	AngleX(deg)	AngleY(deg)	AngleZ(deg)	T(°)	hx	hy	hz	Pressure(Pa)	Altitude(m) 
711.025	-0.1680	-0.1050	1.0083	0.9155	0.3052	-2.8076	-6.0040	9.3494	-14.0295	45.5100	-26	148	-60	100555	0.64 
711.198	-0.1724	-0.0942	1.0210	0.7324	-2.1973	1.8921	-5.9271	9.3109	-14.2273	45.4800	-27	149	-58	100554	0.64 
711.260	-0.1699	-0.0933	1.0273	-0.1831	1.8311	6.2866	-5.8612	9.2505	-13.8922	45.5000	-27	152	-61	100555	0.64 
711.354	-0.1641	-0.1494	1.0234	-0.9766	2.3193	9.2773	-5.8173	9.4373	-12.9419	45.5000	-23	149	-61	100555	0.64 
711.432	-0.1577	-0.1191	1.0098	0.7324	5.9814	4.3945	-5.7953	9.7504	-12.4036	45.5000	-24	148	-59	100555	0.64 
711.541	-0.2163	-0.0430	0.8809	-5.4932	18.3105	5.3711	-5.7733	11.0303	-12.3157	45.5000	-20	150	-63	100555	0.64 
711.635	-0.4199	-0.0234	1.2983	-13.7329	4.3335	49.8047	-5.8392	13.7274	-9.8108	45.4800	-13	151	-61	100555	0.64 
711.760	-0.0371	-0.1792	0.9590	1.0986	14.8926	23.8037	-5.6250	13.3539	-5.4602	45.5000	0	155	-56	100555	0.64 
711.822	-0.1431	-0.0649	0.9775	5.6763	16.4795	11.7798	-4.6692	15.2380	-3.8782	45.5000	8	152	-58	100555	0.64 
711.947	-0.1323	-0.0532	1.0508	10.6812	15.3198	-1.2207	-3.9990	16.5399	-3.2300	45.5100	16	153	-57	100555	0.64 
712.041	-0.2090	0.0371	1.0791	13.2446	21.4233	-4.9438	-2.6642	17.1552	-3.3179	45.4900	17	152	-62	100555	0.64 
712.135	-0.8608	0.1567	1.4492	-14.0381	53.4058	8.0566	-1.9830	21.0553	-2.9443	45.5000	24	149	-59	100555	0.64 
712.229	-0.3457	-0.4106	0.5981	-0.3662	38.0859	-25.0854	-3.8232	22.4890	-3.2025	45.4900	34	151	-59	100555	0.64 
712.338	-0.3789	-0.0317	0.8525	0.2441	-1.7700	-19.1650	-5.6525	24.8785	-6.9489	45.4800	33	152	-62	100555	0.64 
712.432	-0.3374	-0.1763	0.7988	-11.5967	7.9956	-13.9771	-7.0752	24.6918	-7.9541	45.4800	31	155	-62	100555	0.64 
712.526	-0.3706	-0.1191	0.8809	-6.8359	1.6479	8.4229	-8.0969	25.2411	-8.6462	45.4500	29	156	-57	100555	0.64 
712.635	-0.4541	-0.2085	1.1953	-5.8594	0.9155	7.4463	-8.3331	25.2081	-6.5039	45.4600	34	158	-56	100556	0.64 
712.729	-0.7632	-0.1401	0.8345	-2.4414	-22.8271	3.9063	-8.6902	25.0543	-5.3503	45.4500	41	158	-53	100556	0.64 
712.839	-0.4917	-0.0444	0.8745	6.6528	4.5776	10.9253	-6.8884	25.7190	-2.8564	45.4400	48	154	-52	100555	0.64 
712.947	-0.3833	0.0469	0.8535	10.8032	3.6011	2.7466	-5.2075	25.7739	-1.6919	45.4500	51	156	-57	100555	0.64 
713.011	-0.3315	-0.0352	0.8540	5.9814	-4.7607	12.8174	-3.7189	25.4938	0.0549	45.4000	57	156	-68	100555	0.64 
713.136	-0.3560	-0.0171	0.9805	7.9346	-9.5825	-5.4321	-2.7850	24.6698	1.1041	45.4200	60	157	-68	100555	0.64 
713.244	-0.4951	0.0059	1.2417	0.4272	15.6250	-11.3525	-2.5214	23.5382	0.8734	45.4200	60	156	-70	100554	0.64 
713.323	-0.4409	-0.2100	0.5786	2.8687	-28.6865	-28.3813	-1.9995	23.7140	0.2472	45.4100	58	157	-75	100554	0.64 
713.417	-0.5049	0.0747	0.9971	-5.9814	3.1128	-31.8604	-4.3671	23.9447	-3.8837	45.4100	51	159	-77	100554	0.64 
713.557	-0.2705	-0.1167	0.7031	-17.9443	-3.7842	-3.0518	-6.3336	22.4835	-4.4495	45.4100	43	162	-80	100554	0.64 
713.666	-0.3394	-0.0874	0.6914	-8.3008	9.8877	-4.2725	-7.8552	22.7032	-5.3613	45.4000	41	168	-78	100553	0.64 
713.760	-0.4009	-0.2236	1.2983	-5.0049	-5.5542	-7.2632	-8.8989	23.4338	-5.5426	45.4100	38	169	-74	100553	0.64 
713.838	-0.7700	-0.3169	1.4819	-8.4229	-1.2207	1.4648	-9.4592	22.5604	-5.5261	45.4000	40	167	-74	100552	0.64 
713.948	-0.4575	0.0635	0.6929	-6.5918	-10.9253	41.2598	-8.3661	22.5824	-1.9995	45.4100	44	171	-77	100552	0.64 
714.026	-0.2500	-0.1563	0.7441	8.3618	-9.7046	10.6201	-7.2180	22.1045	1.1316	45.4000	54	170	-76	100552	0.64 
714.182	-0.2964	-0.0190	0.8193	6.0425	12.0239	11.7188	-5.9656	22.6593	1.9391	45.4100	57	168	-80	100551	0.65 
714.244	-0.2725	-0.0859	0.9712	6.3477	5.9204	-8.3618	-5.1581	23.1262	2.6807	45.4200	64	172	-81	100551	0.65 
714.354	-0.3667	-0.0591	1.1909	11.5967	-12.0239	-16.5405	-4.7296	22.1155	1.5820	45.4300	59	168	-82	100551	0.65 
714.417	-0.8721	-0.1084	1.0771	11.2305	-48.5229	11.2305	-2.9773	22.5494	1.6150	45.4300	57	168	-92	100550	0.65 
714.573	-0.4443	-0.1514	0.6553	2.7466	5.8594	-20.8740	-3.6090	21.5826	-0.6702	45.4100	48	167	-99	100550	0.65 
714.635	-0.2842	-0.0894	0.7671	-14.2822	-2.7466	1.6479	-4.6033	22.5275	-1.7084	45.4000	47	171	-100	100549	0.65 
714.791	-0.3188	-0.1411	0.8394	-11.1084	18.1274	-7.0801	-6.2732	23.1812	-1.6425	45.4000	48	176	-96	100549	0.65 
714.885	-0.3018	-0.2344	0.9609	-10.1318	-4.6997	5.6763	-7.3389	23.5767	-1.4886	45.4000	51	176	-90	100548	0.65 
714.948	-0.6050	-0.2886	1.3481	-7.6294	18.9819	7.0801	-8.4869	23.4448	-1.2360	45.4100	49	178	-87	100548	0.65 
715.057	-0.5732	0.1318	0.7476	-4.3945	-1.4038	20.0806	-8.5034	24.2853	-0.1758	45.4000	55	180	-88	100547	0.65 
715.120	-0.3926	-0.2163	0.9199	16.9678	-13.2446	7.2632	-7.0367	24.0161	2.0490	45.3900	60	179	-90	100547	0.65 
715.245	-0.2754	0.0356	0.7271	18.7378	-1.4648	-1.0986	-4.8834	23.3405	2.1313	45.3900	60	180	-94	100547	0.65 
715.370	-0.2861	-0.0405	0.8003	9.7046	10.4980	2.8076	-2.8729	23.4338	3.4937	45.4000	59	175	-100	100547	0.65 
715.433	-0.2227	0.0137	0.9761	7.0190	-0.2441	-7.3853	-2.0764	23.4888	3.3014	45.3900	61	173	-103	100546	0.65 
715.573	-0.6211	0.0298	1.2080	2.8076	21.1182	7.5073	-1.4667	24.0820	3.5266	45.4000	60	169	-108	100546	0.65 
715.636	-0.4043	-0.0674	0.6338	2.0752	-23.8647	2.4414	-0.7196	24.2194	4.8285	45.4000	66	170	-107	100546	0.65 
715.730	-0.4502	-0.1118	0.8921	-3.6011	12.4512	-24.4751	-1.4777	24.4061	3.9331	45.4100	68	169	-107	100545	0.65 
715.823	-0.3428	-0.1626	0.8472	-17.4561	-3.9063	0.6104	-3.1091	24.1589	4.0814	45.4000	68	175	-105	100545	0.65 
715.995	-0.3374	-0.0742	0.8726	-14.8315	5.2490	-9.0942	-4.9768	24.0601	3.8617	45.4000	71	175	-101	100545	0.65 
716.057	-0.3672	-0.2109	1.0513	-13.0615	-5.4932	-3.7842	-6.6577	23.7909	3.8837	45.4100	70	182	-94	100545	0.65 
716.136	-0.6216	-0.3120	1.3262	-4.0283	-11.1694	2.8076	-7.9816	23.1317	3.6749	45.4100	69	182	-91	100544	0.65 
716.260	-0.3301	0.1841	0.6597	4.2725	14.8315	10.3149	-7.5311	23.5382	3.8947	45.3900	70	181	-89	100544	0.65 
716.385	-0.3257	-0.0767	0.8428	14.3433	-3.9063	6.1646	-6.2622	24.7192	4.4989	45.3700	75	183	-92	100544	0.65 
716.433	-0.3579	-0.0034	0.8174	10.3760	2.3193	6.2256	-4.7296	25.1697	5.0372	45.3800	80	181	-94	100544	0.65 
716.557	-0.3936	-0.0645	0.9072	12.6953	6.1035	-9.4604	-3.6475	25.1202	5.6909	45.3700	79	178	-100	100543	0.65 
716.667	-0.3647	0.1182	1.1582	6.1646	-2.0142	-8.1787	-3.0103	24.1809	4.3561	45.3700	77	179	-100	100543	0.65 
716.745	-0.9585	0.0176	1.2944	3.8452	-9.7656	14.7705	-2.6147	25.2521	4.6857	45.3800	80	178	-103	100543	0.65 
716.854	-0.5273	-0.1675	0.8208	-3.7842	11.9629	-27.2217	-3.7793	25.0104	3.0872	45.3700	81	173	-107	100543	0.65 
716.948	-0.3262	-0.1040	0.7349	-21.4233	-9.7656	5.6763	-5.3558	25.2136	2.2247	45.3700	73	181	-104	100542	0.65 
717.057	-0.2920	-0.1479	0.7642	-25.4517	12.4512	6.1646	-7.6685	25.2795	3.4827	45.3700	80	186	-102	100542	0.65 
717.136	-0.3672	-0.3486	1.0459	-13.7329	7.6294	4.6997	-9.3164	26.1475	4.6747	45.3600	84	185	-92	100542	0.65 
717.276	-0.5347	-0.2021	1.2813	-0.9766	3.3569	-4.9438	-10.0854	26.1090	4.8010	45.3700	92	185	-85	100541	0.65 
717.354	-0.5566	0.0879	0.5757	-0.9155	-9.7046	11.5356	-10.1404	26.6089	5.1471	45.3800	93	188	-88	100541	0.65 
717.448	-0.5371	-0.2646	0.9531	12.7563	-3.2959	20.9961	-8.4595	27.2681	7.5366	45.3700	99	190	-88	100541	0.65 
717.557	-0.3242	0.0127	0.7407	18.9209	-0.3662	17.3950	-5.5151	26.7737	9.9701	45.3700	106	182	-92	100541	0.65 
717.651	-0.3643	-0.0879	0.7827	13.3667	4.6997	11.9629	-2.5983	26.5320	12.5629	45.3600	112	178	-103	100541	0.65 
717.761	-0.4365	-0.0059	1.1196	15.6860	-4.6997	-15.0757	-1.3953	26.7023	12.0959	45.3500	118	174	-110	100541	0.65 
717.870	-1.0366	0.1543	1.5000	-0.3662	10.3149	0.3662	-1.1975	27.2955	11.6455	45.3700	112	176	-112	100540	0.65 
717.948	-0.4565	-0.2383	0.6411	-1.8921	3.9063	-23.6816	-2.8290	26.4386	9.3768	45.3600	104	179	-119	100540	0.66 
718.073	-0.3350	-0.0190	0.7769	-18.5547	-17.0288	-3.7842	-4.6637	26.7078	7.3663	45.3600	95	181	-120	100539	0.66 
718.182	-0.3037	-0.1514	0.7461	-14.6484	1.3428	1.0986	-6.5204	26.0101	8.0530	45.3800	93	185	-116	100539	0.66 
718.261	-0.3428	-0.2246	0.8955	-13.7939	10.1929	2.1973	-7.7728	26.1090	8.3057	45.3500	96	187	-111	100539	0.66 
718.354	-0.3984	-0.2515	1.1514	4.7607	-18.4937	-16.3574	-8.9594	25.6421	7.6630	45.3800	94	191	-111	100538	0.66 
718.466	-0.9878	-0.0718	0.9990	12.0850	-15.9302	-16.2964	-8.9758	25.0323	5.5811	45.3900	88	192	-118	100538	0.66 
718.560	-0.5171	-0.1274	0.9302	5.7983	14.4043	2.8687	-7.1027	25.6641	6.2787	45.3800	80	191	-120	100538	0.66 
718.669	-0.2979	0.0498	0.7241	15.8691	9.7046	0.1221	-5.4822	26.0925	6.2567	45.3600	81	189	-128	100537	0.66 
718.778	-0.3296	-0.0581	0.7559	8.5449	1.4038	26.6724	-3.0377	26.6748	8.0804	45.3800	80	182	-135	100537	0.66 
718.872	-0.4736	-0.0317	1.0405	4.1504	7.3242	3.1738	-1.8951	27.7130	9.7394	45.3700	86	178	-142	100537	0.66 
718.997	-0.5054	0.0210	1.1865	-0.3662	8.1787	-6.4087	-1.4667	27.6361	9.4812	45.3700	90	174	-147	100537	0.66 
719.075	-0.5342	-0.1206	0.6367	-1.7700	-36.7432	-3.2959	-1.3623	27.5537	8.3331	45.3800	86	177	-145	100537	0.66 
719.170	-0.4766	-0.0366	0.8892	-7.9346	-5.6152	-11.6577	-2.8455	27.1033	5.9436	45.3700	74	174	-149	100537	0.66 
719.278	-0.3906	-0.0542	0.6685	-14.2822	-16.1133	21.1182	-3.6749	25.4279	6.1139	45.3600	67	175	-149	100536	0.66 
719.373	-0.2568	-0.1099	0.7197	-12.4512	3.1128	-4.0894	-4.7351	24.6313	6.9104	45.3800	62	180	-149	100536	0.66 
719.513	-0.3599	-0.2212	1.0361	-2.8076	9.4604	-2.6855	-6.0480	25.4443	6.5533	45.3700	62	180	-147	100535	0.66 
719.591	-0.5513	-0.0547	1.2139	-2.8687	-8.9111	-0.0610	-6.7072	25.4443	5.2844	45.3900	61	185	-144	100535	0.66 
719.747	-0.5010	-0.1128	0.6274	-4.7607	-9.7656	-3.6011	-7.0258	24.1315	4.4879	45.3700	51	183	-146	100535	0.66 
719.888	-0.4800	-0.0713	0.7651	8.5449	-15.1367	-2.5635	-6.7346	24.0326	2.7795	45.3700	44	182	-150	100535	0.66 
719.919	-0.4834	0.0068	0.8101	10.6812	-8.4839	13.3057	-5.1855	23.7689	2.3730	45.3600	39	180	-151	100534	0.66 
719.950	-0.3721	-0.1455	0.8369	1.4648	-7.2021	10.3760	-3.7354	22.9504	3.7079	45.3500	37	176	-155	100534	0.66 
720.091	-0.4360	-0.0576	0.9414	2.8076	-9.2163	-13.4277	-3.6365	22.6428	2.4554	45.3800	36	177	-154	100534	0.66 
720.185	-0.4170	-0.0063	0.9785	5.2490	-8.5449	-18.0664	-3.8013	20.8685	-0.3790	45.3700	23	176	-157	100534	0.66 
720.279	-0.5693	-0.0342	1.0649	12.0239	0.6714	-10.8032	-3.8342	20.4675	-3.3344	45.3600	10	176	-161	100533	0.66 
720.373	-0.3784	-0.0952	0.9150	4.0283	1.7090	-12.4512	-3.1311	19.4897	-4.8120	45.3900	4	170	-163	100533	0.66 
720.497	-0.3228	-0.0938	0.9160	3.6621	-11.9019	-8.1177	-3.2355	18.8800	-6.8500	45.4000	1	172	-167	100533	0.66 
720.591	-0.2744	-0.0225	0.9434	-1.2207	-10.0708	-2.9297	-3.3673	17.6660	-8.2068	45.4000	-7	171	-169	100532	0.66 
720.685	-0.2837	-0.1294	0.9570	-5.7983	-3.6011	10.1929	-3.5101	17.5067	-8.1409	45.4000	-11	172	-166	100532	0.66 
720.763	-0.3037	-0.0591	0.9800	-2.6855	-1.6479	5.1880	-3.7958	17.3309	-8.2013	45.4100	-7	170	-164	100532	0.66 
720.903	-0.2856	-0.0874	0.9756	-2.6245	-5.4321	6.8359	-3.8452	17.1057	-8.1299	45.4100	-5	170	-163	100532	0.66 
720.997	-0.2930	-0.0791	0.9902	-2.1973	1.0376	3.9673	-3.9276	16.8365	-8.1464	45.4100	-5	170	-163	100532	0.66 
721.091	-0.2681	-0.0884	0.9775	-0.0610	-0.6714	3.2959	-3.8892	16.8420	-8.2233	45.4000	-5	173	-159	100532	0.66 
721.185	-0.2886	-0.0771	0.9858	-1.0376	-0.5493	4.0894	-3.8507	16.7651	-8.4100	45.4400	0	169	-160	100532	0.66 
721.310	-0.2744	-0.0693	0.9878	-1.2207	-0.1221	1.4648	-3.9880	16.7047	-8.8770	45.4300	0	169	-163	100532	0.66 
721.388	-0.2939	-0.0693	0.9873	-0.1831	1.3428	0.9155	-4.0704	16.8146	-9.3054	45.4300	-2	174	-165	100532	0.66 
721.483	-0.2783	-0.0688	0.9829	-1.0986	0.4272	2.5635	-4.0759	16.8311	-9.5526	45.4200	0	173	-163	100531	0.66 
721.577	-0.2773	-0.0830	0.9824	-0.5493	-1.8921	2.1973	-4.1144	16.7596	-9.6570	45.4400	-2	170	-157	100532	0.66 
721.718	-0.2944	-0.0503	0.9858	-0.9155	-4.0283	1.5869	-4.0869	16.4520	-9.8987	45.4300	-2	171	-162	100532	0.66 
721.796	-0.2847	-0.0591	0.9878	-1.4648	-1.5259	3.6011	-4.1418	16.1938	-10.0250	45.4300	1	176	-161	100532	0.66 
721.890	-0.2808	-0.0898	0.9834	-1.1597	-1.8311	2.5635	-4.1583	16.0236	-9.9152	45.4400	2	172	-158	100531	0.66 
721.992	-0.2715	-0.0996	0.9897	-0.0610	-1.5259	-4.0283	-4.2957	15.8643	-10.2777	45.4700	2	174	-158	100531	0.66 
722.107	-0.2788	-0.0576	1.0024	0.3052	0.4883	-4.6997	-4.4824	15.8643	-11.2170	45.4400	0	173	-157	100531	0.66 
722.185	-0.2871	-0.0898	0.9961	-0.5493	-1.8921	-1.0986	-4.5483	15.8258	-11.7279	45.4500	-1	174	-161	100531	0.66 
722.310	-0.2690	-0.0864	0.9937	0.6104	-0.9155	-2.5635	-4.6088	15.6116	-12.2058	45.4600	-4	176	-163	100531	0.66 
722.403	-0.2744	-0.0854	0.9961	1.6479	-0.9155	-4.9438	-4.7021	15.4248	-13.0188	45.4700	-6	174	-159	100531	0.66 
722.513	-0.2661	-0.0605	0.9946	-0.2441	-1.0986	1.2817	-4.5758	15.2216	-13.4033	45.4700	-12	173	-161	100532	0.66 
722.576	-0.2759	-0.0806	1.0054	-1.3428	-1.7090	5.5542	-4.5868	15.2161	-13.3209	45.4700	-8	174	-158	100532	0.66 
722.747	-0.2554	-0.0825	0.9980	-0.3052	-3.4180	3.7231	-4.5648	14.9030	-13.1122	45.4700	-6	172	-158	100531	0.66 
722.810	-0.2500	-0.0850	0.9883	0.3052	-3.1128	1.8311	-4.5044	14.6118	-13.0133	45.4900	-4	174	-157	100531	0.66