StartTime: 2017-07-07 14:39:13.815
Time(s)	ax(g)	ay(g)	az(g)	wx(deg/s)	wy(deg/s)	wz(deg/s)	AngleX(deg)	AngleY(deg)	AngleZ(deg)	T(°)	hx	hy	hz	Pressure(Pa)	Altitude(m) 
534.571	-1.0938	0.0137	1.8779	-0.1221	0.3662	-0.4272	0.2417	29.2731	124.4257	45.6800	79	-119	228	100668	0.55 
534.602	-1.0923	0.0098	1.8770	-0.2441	0.3052	0.7935	0.2582	29.3884	124.4202	45.6900	81	-120	230	100668	0.55 
534.696	-1.0942	0.0137	1.8735	0.0000	0.0000	0.3662	0.2966	29.4434	124.4421	45.6900	83	-118	229	100668	0.55 
534.805	-1.0947	0.0146	1.8735	-0.4272	1.1597	0.5493	0.3186	29.5422	124.4312	45.6700	78	-120	231	100668	0.55 
534.899	-1.1094	0.0186	1.8696	-0.1221	2.3193	0.7324	0.3516	29.7510	124.5081	45.7000	81	-124	232	100667	0.55 
535.008	-1.0786	-0.0117	1.8770	0.6714	5.1880	-2.0752	0.3680	30.1190	124.4586	45.6900	79	-122	232	100668	0.55 
535.102	-1.0991	0.0132	1.8765	0.2441	12.2070	-1.3428	0.4230	30.8441	124.3378	45.7000	84	-121	231	100667	0.55 
535.274	-1.1548	-0.0093	1.8369	12.2681	23.8037	-2.2583	0.8020	32.4097	123.8599	45.7000	88	-120	239	100667	0.55 
535.399	-1.2935	-0.0737	1.8335	19.4702	38.5742	-0.2441	2.1863	35.7111	123.6237	45.7100	92	-126	244	100667	0.55 
535.602	-1.3374	-0.0635	1.7817	27.5269	23.7427	-10.1318	3.9221	38.8751	122.7393	45.7000	103	-127	252	100668	0.55 
535.649	-1.2734	-0.0439	1.7456	29.4800	7.7515	-2.8687	5.3558	40.2759	121.3715	45.6900	107	-129	259	100668	0.55 
535.665	-1.4053	-0.0933	1.6997	29.5410	8.2397	12.8784	8.7451	41.0614	122.7557	45.6900	115	-135	264	100668	0.55 
535.774	-1.3291	0.1099	1.5801	58.1665	-3.5400	15.1978	13.2275	41.0394	123.7720	45.7000	112	-139	263	100668	0.55 
535.852	-1.4316	0.1748	1.5273	54.0161	-11.9629	53.0396	21.4178	39.2651	128.1445	45.6700	110	-158	260	100668	0.55 
536.009	-1.0996	0.1582	1.1421	53.2837	-27.4658	52.9175	28.7347	35.6616	133.2147	45.6500	110	-182	253	100668	0.55 
536.087	-1.5625	2.1382	2.0142	15.2588	20.5688	117.5537	35.1563	29.4928	139.4879	45.6200	90	-213	243	100668	0.55 
536.181	0.3462	-0.3232	0.9131	77.8198	-203.7354	203.3691	43.0554	0.5438	155.8960	45.5800	32	-268	229	100668	0.55 
536.493	-0.2856	-0.0381	1.0171	-17.2729	-148.6206	237.9761	41.3196	-23.0878	162.2845	45.5400	-78	-310	215	100670	0.55 
536.618	0.3613	-0.4839	0.8438	-17.1509	-160.6445	104.4922	30.9265	-46.3953	172.4908	45.5200	-192	-303	215	100670	0.55 
536.618	-0.1543	-0.2808	0.9077	-13.6108	16.7236	1.1597	27.3779	-54.9481	174.7540	45.5000	-256	-284	231	100671	0.55 
536.680	0.0493	-0.1377	1.0635	4.0283	33.3252	-27.1606	23.1976	-50.2185	179.0057	45.5200	-261	-282	231	100671	0.55 
536.727	-0.0391	0.1040	1.0786	-1.0986	23.1323	-65.3076	24.0875	-43.9398	177.9730	45.5000	-246	-288	229	100672	0.54 
536.837	-0.0854	0.1958	1.2002	0.8545	2.9297	-66.6504	25.9717	-37.8204	174.1498	45.5000	-220	-302	221	100672	0.54 
536.946	-0.2114	0.4233	1.1543	3.4180	17.4561	-51.0864	28.2623	-32.8766	170.6671	45.4900	-197	-312	226	100672	0.54 
537.024	-0.2700	0.6025	1.1499	-1.9531	8.8501	-24.1699	28.9160	-27.8778	170.0024	45.5100	-176	-317	225	100672	0.54 
537.134	-0.1621	0.4731	1.1948	9.5215	2.4414	2.7466	28.6194	-24.8456	171.6559	45.5000	-165	-327	226	100673	0.54 
537.259	-0.1499	0.3516	1.1470	0.9766	-7.2632	15.4419	27.9767	-23.8239	174.6277	45.4800	-164	-324	229	100673	0.54 
537.399	-0.1460	0.4014	1.1787	-5.2490	-5.7983	3.6621	26.0815	-23.2690	177.1051	45.5000	-168	-322	226	100673	0.54 
537.540	-0.1470	0.3862	1.0586	-1.8311	-6.2256	3.9673	25.1587	-22.6373	178.7421	45.4900	-170	-320	227	100673	0.54 
537.602	-0.1255	0.3838	1.1733	-3.8452	0.0610	8.1787	23.6700	-21.3629	-178.7860	45.5000	-174	-322	226	100673	0.54 
537.649	-0.1128	0.3789	1.1270	-1.3428	0.6104	2.0752	22.7472	-20.2203	-176.9623	45.5000	-180	-320	227	100673	0.54 
537.743	-0.1128	0.3545	1.1465	-2.7466	7.6294	5.3711	21.8298	-18.7482	-175.0891	45.4900	-178	-317	226	100673	0.54 
537.868	-0.1221	0.3574	1.1812	-1.0376	-0.4272	7.6294	20.8356	-17.4188	-173.0566	45.4900	-178	-315	223	100673	0.54 
537.946	-0.0894	0.3369	1.1372	-1.0986	-0.7324	2.5635	20.1434	-16.5125	-171.4307	45.4800	-183	-317	226	100673	0.54 
538.087	-0.1177	0.3506	1.1514	0.0000	0.1831	2.7466	19.6655	-15.2930	-170.2881	45.5000	-184	-316	222	100673	0.54 
538.212	-0.1138	0.3345	1.1689	0.0000	0.7324	5.6763	19.2426	-14.2987	-168.9423	45.4900	-184	-313	227	100673	0.54 
538.306	-0.0859	0.3228	1.1577	-0.8545	-1.9531	3.5400	18.7537	-13.5736	-167.5909	45.5000	-186	-314	224	100674	0.54 
538.446	-0.0947	0.3340	1.1484	-1.1597	-1.5259	5.1270	18.3307	-12.7881	-166.5253	45.5000	-189	-311	224	100674	0.54 
538.540	-0.0972	0.3062	1.1450	-0.9766	-1.0376	2.4414	17.8802	-12.1014	-165.4047	45.5200	-188	-314	226	100673	0.54 
538.665	-0.1030	0.3159	1.1445	0.0610	-4.5166	0.1831	17.5726	-11.4313	-164.7784	45.4900	-187	-314	222	100674	0.54 
538.743	-0.0840	0.3228	1.1382	-0.7324	-0.4883	0.6714	17.3254	-10.8215	-164.1138	45.5100	-188	-315	223	100674	0.54 
538.806	-0.0898	0.3286	1.1445	-0.6714	0.0000	-0.6104	17.0947	-9.9701	-163.4326	45.5000	-191	-314	225	100674	0.54 
538.868	-0.0864	0.3242	1.1450	-1.0986	0.4883	0.9155	16.8530	-9.1406	-162.7625	45.5000	-188	-313	224	100674	0.54 
539.056	-0.0986	0.3330	1.1426	-1.3428	-4.4556	0.3052	16.6223	-8.4979	-162.2241	45.4900	-189	-313	222	100674	0.54 
539.118	-0.0464	0.3120	1.1201	-0.9155	-4.0894	-3.7842	16.4520	-8.1354	-161.9550	45.5000	-189	-313	226	100674	0.54 
539.212	-0.0854	0.3179	1.1230	-1.7090	-0.3052	0.6714	16.2872	-7.5586	-161.8121	45.5000	-193	-311	226	100674	0.54