StartTime: 2017-07-07 14:39:13.815
Time(s)	ax(g)	ay(g)	az(g)	wx(deg/s)	wy(deg/s)	wz(deg/s)	AngleX(deg)	AngleY(deg)	AngleZ(deg)	T(°)	hx	hy	hz	Pressure(Pa)	Altitude(m) 
55.681	-1.1201	-0.0361	1.8730	-0.3052	-0.8545	-0.7324	-1.1865	30.2893	64.0009	45.4500	-91	15	225	100648	0.56 
55.728	-1.1313	-0.0361	1.8765	0.0000	-2.1973	-0.6714	-1.2360	30.2289	63.6328	45.4600	-94	16	224	100649	0.56 
55.775	-1.1025	0.0000	1.7329	-10.1929	-7.5073	-9.7656	-1.0547	31.7560	67.6373	45.4600	-76	14	225	100651	0.56 
55.854	-1.7554	-0.2539	2.5195	18.7988	4.5166	-38.1470	-2.1368	31.5802	65.7367	45.4600	-80	12	229	100651	0.56 
55.900	-0.9282	-0.0239	2.0742	-13.0005	2.7466	-16.9067	-2.6312	28.8226	64.1107	45.4600	-89	11	225	100651	0.56 
55.963	-0.8848	-0.0889	1.5410	-9.1553	1.6479	2.6855	-3.3014	28.4216	63.3417	45.4400	-95	13	227	100651	0.56 
56.057	-0.9189	-0.2241	1.6777	3.8452	-9.7656	8.3618	-3.2904	28.0316	62.8967	45.4400	-95	12	234	100651	0.56 
56.103	-1.0483	-0.1064	1.8242	9.3994	13.5498	-3.1738	-2.6312	28.9819	62.4792	45.4400	-96	3	229	100651	0.56 
56.353	-1.0322	-0.1890	1.9609	-0.3052	-8.6670	-3.5400	-2.0929	29.8114	62.9407	45.4500	-92	0	225	100651	0.56 
56.447	-1.4722	0.0483	2.0474	-15.1978	9.1553	6.4087	-3.1146	30.4102	62.7814	45.4400	-96	0	227	100652	0.56 
56.479	-1.1729	-0.1011	1.9658	11.7188	8.0566	-6.7749	-3.0597	31.6901	64.4678	45.4500	-91	0	229	100652	0.56 
56.525	-1.1133	0.1304	1.7832	7.8125	6.2866	9.3384	-1.5161	32.5854	66.3135	45.4500	-91	0	228	100653	0.56 
56.666	-0.9766	-0.0322	1.7251	-9.3994	-22.7051	-14.6484	-0.9558	32.0691	68.8074	45.4600	-83	-2	228	100654	0.56 
56.713	-1.0654	0.0879	1.6597	-7.3242	-3.7231	-8.3008	-2.5708	30.0751	69.2578	45.4700	-94	0	233	100654	0.56 
56.853	-1.6592	-0.1216	2.3403	16.5405	-13.1226	5.4321	-2.5378	30.0751	69.6149	45.4600	-100	-3	232	100654	0.56 
59.150	-1.0986	0.0015	1.8101	-2.2583	23.4985	-20.8130	-4.2902	29.2072	78.1238	45.4200	-95	-4	249	100663	0.55 
59.182	-0.8960	-0.1235	1.5532	0.6714	-0.8545	18.7988	-4.0869	29.7125	78.5742	45.4200	-97	-7	248	100663	0.55 
59.244	-1.0249	-0.1084	1.6943	5.4321	-5.3711	-1.1597	-3.3289	29.9048	78.3820	45.4200	-97	-5	251	100664	0.55 
59.338	-1.1641	-0.0034	1.9067	1.3428	-8.3008	52.4902	-3.0432	31.4923	83.2434	45.4200	-89	-7	250	100665	0.55 
59.417	-1.2397	0.0767	2.2354	-4.6997	-6.6528	10.6812	-0.9613	31.5747	87.2864	45.4400	-76	-8	254	100665	0.55 
59.541	-1.0029	0.0298	1.8403	-7.3853	-1.9531	-11.5967	-0.5878	31.2396	87.3798	45.4400	-79	-7	252	100665	0.55 
59.650	-1.0273	0.0371	1.5820	-1.9531	4.0283	-28.3813	-3.0817	30.1849	84.7156	45.4300	-80	-6	257	100665	0.55 
59.744	-1.6631	-0.0571	2.4443	17.5171	-14.7705	10.2539	-3.3838	30.9320	82.1393	45.4400	-89	-8	254	100665	0.55 
59.854	-1.2773	-0.0332	2.2339	-3.9063	5.8594	8.3618	-3.0542	30.5145	81.8591	45.4400	-93	-6	254	100666	0.55 
59.994	-1.0249	-0.1479	1.6938	-5.4932	13.9771	3.7231	-3.3618	31.4813	82.4634	45.4300	-93	-5	257	100666	0.55 
60.057	-0.9697	-0.1611	1.7852	3.9673	0.1221	7.5073	-2.9553	31.7065	82.4194	45.4300	-88	-3	256	100666	0.55 
60.166	-1.0708	-0.2422	1.7915	7.9956	-4.5166	-10.0098	-2.3401	31.1792	81.7493	45.4500	-85	-1	257	100666	0.55 
60.291	-1.3584	-0.0122	2.2344	-14.2822	-7.0801	-1.2207	-2.8345	31.7560	82.6941	45.4400	-85	-3	252	100666	0.55 
60.354	-1.3481	0.1343	2.4023	0.6104	-12.3291	-1.1597	-2.1149	31.5472	83.3917	45.4400	-84	-3	250	100667	0.55 
60.541	-1.0259	0.0093	1.7236	3.9673	1.5259	-2.2583	-0.9558	31.0364	84.2596	45.4300	-86	-3	249	100667	0.55 
60.619	-0.9966	0.1045	1.6025	-8.4839	-9.7046	-24.4751	-2.9828	29.6466	82.2052	45.4400	-90	-1	252	100668	0.55 
60.697	-1.6113	-0.4814	2.2305	20.2637	41.4429	-36.9263	-3.4827	31.4539	80.9088	45.4400	-102	-2	256	100668	0.55 
60.791	-0.8623	0.0493	2.0796	-15.0757	21.6064	-18.4326	-2.5543	31.2891	82.0734	45.4400	-109	-2	249	100668	0.55 
60.932	-0.8765	-0.0723	1.5674	-12.0850	-1.8921	13.8550	-3.4442	31.0364	81.6010	45.4300	-105	-1	246	100668	0.55 
61.010	-0.9531	-0.1865	1.5918	3.7231	-15.7471	32.8369	-2.6422	30.2618	83.1281	45.4300	-107	-1	248	100669	0.55 
61.119	-1.1235	-0.0112	1.4185	-0.9766	-5.7983	25.2686	-1.3623	29.7784	84.7211	45.4300	-99	-2	248	100669	0.55 
64.245	-1.0591	-0.0229	1.8291	-2.2583	-0.2441	7.2632	-0.1978	30.8002	78.3655	45.3800	-125	1	246	100671	0.55 
64.448	-1.1162	-0.0796	1.8516	-1.0376	-0.4272	7.9346	0.2966	30.9265	79.7498	45.3900	-117	0	249	100672	0.54 
64.495	-1.1260	0.0015	1.8687	0.0000	2.9297	10.4370	0.6976	31.0474	80.9857	45.3900	-114	-1	251	100672	0.54 
64.557	-1.1167	-0.0342	1.8706	1.3428	0.1221	1.0986	0.9064	31.2396	81.4526	45.3800	-113	3	246	100672	0.54 
64.604	-1.1177	-0.0308	1.8770	1.8311	-0.1221	-0.6714	0.9943	31.1572	81.4856	45.3800	-116	1	248	100672	0.54 
64.651	-1.1084	-0.0361	1.8794	0.8545	-1.4648	4.6997	1.0822	31.0529	81.5900	45.3900	-112	2	246	100672	0.54 
64.713	-1.0947	-0.0239	1.8799	-1.7090	-3.9063	0.1221	-0.2417	29.4708	79.6619	45.4100	-122	0	246	100672	0.54 
64.792	-1.0654	-0.0527	1.8848	-1.5259	-3.9063	0.3052	-0.4559	29.0863	79.4476	45.4100	-124	-1	248	100673	0.54 
64.823	-1.0684	-0.0225	1.8726	-0.7324	-4.1504	0.0610	-0.5933	28.7402	78.8214	45.4100	-127	0	247	100672	0.54 
64.886	-1.0605	-0.0366	1.8784	-0.6714	-2.8076	3.3569	-0.5988	28.4546	78.7500	45.4100	-123	1	249	100672	0.54 
64.933	-1.0439	-0.0386	1.8804	0.6104	-2.2583	1.9531	-0.5054	28.2349	78.3765	45.4300	-122	-2	247	100672	0.54 
65.042	-1.0303	-0.0381	1.8774	1.1597	-0.7935	0.3052	-0.3900	28.0646	78.3105	45.4000	-121	-1	247	100673	0.54 
65.136	-1.0654	-0.0283	1.8828	-0.3052	-0.0610	1.9531	-0.2582	28.1470	78.6127	45.4000	-124	-1	248	100673	0.54 
65.260	-1.0444	-0.0288	1.8809	-2.3804	-2.9907	0.5493	-0.3186	28.1085	78.6566	45.3900	-124	0	246	100673	0.54 
65.354	-1.0381	-0.0327	1.8770	-1.0986	-2.6245	-0.6104	-0.5219	27.8943	77.8656	45.4100	-126	0	246	100672	0.54