14 steps
StartTime: 2017-07-14 13:50:30.215
Time(s)	ax(g)	ay(g)	az(g)	wx(deg/s)	wy(deg/s)	wz(deg/s)	AngleX(deg)	AngleY(deg)	AngleZ(deg)	T(°)	hx	hy	hz	Pressure(Pa)	Altitude(m) 
301.678	-0.1851	-0.1953	1.1841	-1.4038	1.5259	2.5024	-6.8115	19.1821	-16.7377	43.4800	0	158	-85	100591	0.61 
301.787	-0.7266	-0.3301	1.6582	-1.4648	40.7104	-9.5215	-6.9543	18.4845	-17.7869	43.4900	-7	156	-86	100591	0.61 
301.881	-0.6221	-0.1455	0.9678	13.5498	20.8130	20.9351	-5.9216	18.9844	-15.6226	43.4900	-3	157	-88	100591	0.61 
301.959	-0.2383	0.0708	0.8564	38.5132	-5.9814	-9.4604	-2.4225	18.1494	-14.9963	43.4900	3	158	-96	100590	0.61 
302.084	-0.2153	0.0356	0.6021	20.4468	0.9766	15.5640	1.1151	18.2922	-13.5406	43.4700	6	152	-109	100591	0.61 
302.178	-0.2373	0.1494	0.7954	10.8032	20.6299	13.9160	3.4167	19.2316	-11.4368	43.4700	15	150	-115	100590	0.61 
302.272	-0.2114	0.2026	1.2104	-21.4233	-15.4419	14.8315	4.1089	19.4897	-8.6792	43.4800	19	148	-116	100590	0.61 
302.382	-0.3662	-0.2603	0.8511	-23.4375	-28.4424	-24.4141	1.5436	19.1052	-9.1241	43.4800	27	150	-112	100590	0.61 
302.490	-0.2646	-0.0522	0.7515	-27.4658	-20.1416	-7.1411	-1.9006	18.6218	-11.5466	43.4800	24	154	-107	100590	0.61 
302.569	-0.2744	-0.1655	0.7314	-9.2163	-2.1973	-29.1138	-4.7955	17.8198	-12.8925	43.5000	18	161	-105	100589	0.61 
302.694	-0.2637	-0.1348	0.8433	-10.8643	12.7563	-7.4463	-6.3721	18.2373	-14.7491	43.4800	8	165	-102	100589	0.61 
302.787	-0.2207	-0.1826	1.1680	-2.1362	22.1558	-4.6387	-7.2015	19.4623	-14.4141	43.4800	8	167	-97	100589	0.61 
302.881	-0.3242	-0.0234	1.3916	12.8784	-4.9438	-2.6245	-6.8610	18.8086	-14.9963	43.4700	10	169	-99	100589	0.61 
302.991	-0.2090	0.1079	0.6709	20.7520	-15.5029	35.8276	-4.1528	18.8086	-12.9419	43.5100	10	166	-109	100588	0.61 
303.100	-0.3276	-0.0283	0.9092	26.0620	-5.2490	-1.0986	-1.7743	18.6987	-11.0028	43.4800	15	164	-116	100588	0.61 
303.179	-0.2251	0.0542	0.6357	24.5972	-6.7749	8.3008	1.2360	18.1055	-10.0690	43.4900	16	162	-125	100588	0.61 
303.303	-0.2275	0.1304	0.8267	17.8833	6.4087	3.1738	3.7024	18.1824	-9.1626	43.4800	16	158	-133	100588	0.62 
303.397	-0.2529	0.1372	1.2212	-5.0659	10.8032	14.7095	4.9329	18.6328	-7.6190	43.4900	19	155	-136	100587	0.62 
303.491	-0.7427	0.6323	1.4937	-13.9771	25.1465	-34.3628	3.7079	18.2373	-8.3936	43.4800	22	154	-136	100587	0.62 
303.569	-0.6372	0.0112	1.1621	-21.5454	28.1372	-37.4756	0.3735	19.0228	-10.9369	43.4800	14	161	-136	100587	0.62 
303.694	-0.2485	-0.0806	0.6255	-34.1187	4.9438	19.8364	-2.5763	19.1602	-10.1678	43.4900	15	168	-128	100586	0.62 
303.788	-0.3145	-0.0356	0.7358	-16.0522	15.5029	2.8687	-5.2844	20.2698	-10.2173	43.4800	20	174	-121	100585	0.62 
303.897	-0.2856	-0.1777	1.0088	-2.8076	12.6953	3.5400	-6.4380	22.2913	-9.9536	43.4900	28	176	-114	100585	0.62 
303.991	-0.4946	-0.0874	1.4131	20.6909	-4.3945	-30.9448	-6.7346	22.4286	-11.7114	43.5000	27	177	-114	100584	0.62 
304.084	-0.2188	0.0342	0.7427	21.1182	-47.1802	28.9917	-4.2517	20.9949	-10.2283	43.4900	24	174	-122	100584	0.62 
304.209	-0.2847	-0.0361	0.9048	26.9165	-27.9541	0.8545	-1.5546	19.5447	-8.8055	43.4900	22	172	-127	100584	0.62 
304.303	-0.2793	0.0396	0.6436	28.1372	-6.0425	7.5073	1.5436	17.6935	-8.2068	43.4900	18	169	-137	100584	0.62 
304.401	-0.2163	0.1074	0.6973	28.8086	13.7939	-19.8364	4.2737	18.4021	-9.5032	43.4900	16	162	-150	100584	0.62 
304.495	-0.2534	0.2085	1.2002	-2.0142	7.7515	8.9722	6.0754	19.5172	-9.1736	43.4900	13	154	-156	100583	0.62 
304.604	-0.6104	0.5107	1.4907	-34.5459	15.8081	-13.2446	3.9606	18.3746	-9.2175	43.5000	16	157	-151	100583	0.62 
304.714	-0.6938	0.1694	1.2246	-22.5220	18.5547	-30.5176	0.0220	19.1052	-10.9094	43.4900	17	166	-143	100583	0.62 
304.792	-0.2583	-0.1362	0.6670	-30.7617	-2.0142	6.0425	-2.7795	19.1931	-10.7666	43.4900	19	174	-138	100583	0.62 
304.917	-0.2598	-0.0942	0.6616	-14.9536	14.0991	-4.3335	-5.3668	19.9402	-11.6290	43.4900	19	177	-130	100583	0.62 
304.996	-0.2046	-0.2471	0.9961	-11.5356	23.6206	6.6528	-6.7017	21.7639	-11.1621	43.4900	23	182	-121	100582	0.62 
305.152	-0.1660	-0.2021	1.2354	13.1836	-13.4277	-31.4331	-7.4762	21.5112	-12.6508	43.4900	25	185	-122	100582	0.62 
305.215	-0.3945	0.0195	0.8096	19.3481	-54.3213	25.8789	-5.7074	21.8024	-12.5793	43.4900	18	181	-124	100581	0.62 
305.293	-0.2158	0.0249	0.8345	24.9634	-35.7056	16.8457	-2.9828	20.1105	-11.3269	43.5000	23	179	-132	100581	0.62 
305.402	-0.2344	0.0879	0.6406	23.5596	-11.5356	19.1040	0.2032	18.6603	-9.9921	43.4800	23	178	-144	100580	0.62 
305.511	-0.2759	0.1084	0.7529	14.8926	4.2114	4.6997	2.7246	18.5065	-8.2837	43.4900	24	170	-150	100580	0.62 
305.606	-0.2959	0.2402	1.1904	-2.4414	14.8926	24.5972	4.2737	19.3634	-6.1798	43.4800	31	168	-149	100580	0.62 
305.730	-0.5503	0.4375	1.4521	-18.4937	12.6343	-17.3950	3.5211	18.7097	-4.6362	43.4900	38	166	-151	100579	0.62 
305.808	-0.6250	0.0786	1.1675	-20.0195	23.4985	-24.8413	0.0879	19.1876	-6.8170	43.5000	41	172	-146	100579	0.62 
305.918	-0.2915	-0.1880	0.6523	-25.7568	7.7515	-7.5073	-3.1696	19.4183	-7.0203	43.4900	41	180	-139	100578	0.62 
305.981	-0.2568	-0.0273	0.7275	-6.6528	17.5171	-26.2451	-5.7019	19.9786	-9.1736	43.5000	38	188	-134	100578	0.62 
306.121	-0.1729	-0.2026	0.9683	-5.4932	17.0288	-3.8452	-6.7621	21.3245	-9.8218	43.4800	36	187	-131	100578	0.62 
306.199	-0.2056	-0.1821	1.2754	1.7090	-21.1182	-8.9111	-7.7069	21.2036	-10.5359	43.5000	39	189	-130	100577	0.62 
306.340	-0.3242	0.1499	0.7271	10.0098	-58.5327	47.4243	-6.0699	20.5005	-7.7344	43.5200	41	189	-132	100578	0.62 
306.387	-0.2925	-0.0845	0.8350	27.9541	-28.5034	4.0283	-3.3124	20.1599	-5.4382	43.5100	50	187	-137	100577	0.62 
306.558	-0.2061	0.0947	0.5898	27.4658	-6.5308	15.2588	0.0824	19.7260	-5.3503	43.5000	47	181	-149	100576	0.62 
306.621	-0.2974	0.0898	0.7280	21.2402	10.4980	14.8926	3.0432	20.7532	-3.8342	43.5000	48	172	-162	100576	0.62 
306.684	-0.3130	0.2158	1.2573	-10.3149	10.1929	19.1040	4.8175	22.0276	-1.3623	43.5200	56	168	-165	100576	0.63 
306.778	-1.1362	0.1626	1.6357	-23.7427	-0.3662	2.8687	3.0267	21.3959	-0.7855	43.5300	63	172	-159	100575	0.63 
306.953	-0.7461	0.0239	1.1587	-20.0195	2.5635	-25.0244	-0.8020	20.3741	-3.5870	43.5400	56	175	-157	100575	0.63 
307.000	-0.3101	-0.1587	0.6567	-18.4937	5.1270	-14.4043	-3.7463	19.9017	-4.8175	43.5300	47	179	-153	100574	0.63 
307.095	-0.2710	-0.0474	0.7891	-4.5776	18.9819	-26.6724	-5.7733	20.4675	-7.3773	43.5200	39	184	-150	100574	0.63 
307.205	-0.2534	-0.1851	1.1143	0.3052	26.0620	-13.1226	-6.6412	21.9452	-8.4705	43.5400	39	188	-150	100574	0.63 
307.299	-0.3794	-0.0063	1.3037	13.2446	-9.8877	-11.6577	-6.8335	21.1871	-10.0360	43.5500	35	191	-152	100574	0.63 
307.393	-0.2715	-0.1138	0.8335	4.3335	-1.8311	43.0908	-4.6967	20.8136	-6.5094	43.5400	33	189	-157	100573	0.63 
307.486	-0.3428	-0.0059	0.8252	22.2168	-9.2163	8.6670	-2.2467	20.2863	-4.4769	43.5500	37	184	-163	100573	0.63 
307.627	-0.2266	0.0132	0.5845	20.2026	-4.9438	16.3574	0.7471	19.8578	-2.8949	43.5600	36	171	-172	100573	0.63 
307.689	-0.2686	0.1074	0.7949	17.7612	9.8267	8.4229	3.4387	20.6049	-1.3788	43.5500	39	163	-181	100572	0.63 
307.862	-0.2612	0.1572	1.2656	-6.5918	3.1128	11.7798	4.6637	21.2695	0.0824	43.5700	44	160	-187	100572	0.63 
307.923	-0.9473	0.0928	1.4575	-19.9585	-4.8828	-10.2539	3.1256	20.8411	-0.4779	43.5600	43	164	-186	100571	0.63 
308.017	-0.6152	-0.0020	1.0352	-20.0195	-16.4185	-22.3389	-0.4999	20.6982	-5.2844	43.5700	32	170	-184	100571	0.63 
308.158	-0.3174	-0.1494	0.6992	-19.9585	-5.0049	-16.9678	-3.4662	19.9127	-7.8278	43.5800	16	170	-179	100571	0.63 
308.220	-0.2656	-0.0625	0.7686	-8.6060	4.8828	-26.2451	-5.7074	19.4348	-11.2225	43.5900	5	178	-175	100571	0.63 
308.299	-0.2061	-0.1943	0.9087	-3.4790	6.1646	-17.2729	-7.1851	19.2810	-13.6450	43.5700	-4	177	-174	100570	0.63 
308.408	-0.2104	-0.2192	1.1489	1.4648	-12.6343	-3.6621	-7.7728	19.5831	-15.0952	43.5800	-11	180	-175	100570	0.63 
308.502	-0.5127	-0.1167	1.2505	11.9629	-22.1558	27.0386	-6.8060	19.4952	-14.0076	43.6000	-13	174	-179	100570	0.63 
308.627	-0.6626	-0.0439	1.0728	23.0713	0.4883	0.0000	-4.2517	19.6326	-12.1124	43.6100	-8	169	-180	100569	0.63 
308.705	-0.3379	0.0571	0.7988	14.9536	-11.4136	4.2725	-1.7743	18.5339	-12.5958	43.6000	-10	164	-186	100569	0.63 
308.815	-0.2749	0.0825	0.7598	7.2632	-12.3901	9.5215	-0.1428	17.5836	-12.3651	43.5900	-17	159	-192	100569	0.63 
308.940	-0.2788	0.0894	0.8906	0.0000	-10.4370	14.1602	0.9174	16.9354	-11.5686	43.5800	-18	158	-193	100568	0.63 
309.019	-0.2041	0.2017	0.8589	-6.9580	-15.9302	5.4321	1.3733	15.4578	-11.7334	43.5900	-22	157	-194	100568	0.63 
309.097	-0.4702	-0.2588	1.2632	-16.4795	-22.2778	7.5073	-0.1099	14.3591	-11.9312	43.6000	-25	157	-191	100568	0.63 
309.222	-0.2061	-0.0605	0.9277	0.6714	-15.6250	-9.2773	-1.2415	12.0190	-13.0078	43.6200	-28	164	-187	100568	0.63 
309.316	-0.2759	-0.0137	1.0078	-8.4229	-9.7046	8.0566	-1.5710	11.0577	-13.8263	43.6200	-35	166	-183	100568	0.63 
309.425	-0.2012	-0.1289	0.9912	-1.5259	-5.9204	2.3193	-2.2137	10.8984	-13.3264	43.6200	-37	168	-182	100567	0.63 
309.504	-0.1758	-0.0620	1.0415	-0.4272	-1.8921	-3.7231	-2.4060	10.5963	-14.3866	43.6300	-39	171	-182	100567	0.63 
309.628	-0.1558	-0.0630	1.0298	-1.8311	-0.6714	-4.4556	-2.6587	10.2997	-15.2600	43.6400	-36	171	-181	100566	0.63 
309.753	-0.1577	-0.0566	1.0313	-0.9155	0.1221	-3.2349	-2.9004	10.2008	-16.1389	43.6400	-42	169	-180	100566	0.63 
309.816	-0.1650	-0.0249	1.0283	-1.4648	1.7700	-1.0986	-3.0597	10.1019	-16.9629	43.6400	-42	168	-184	100566	0.63 
309.925	-0.1851	-0.0361	1.0269	-1.1597	0.4272	6.0425	-3.1476	10.2612	-16.9354	43.6400	-41	168	-179	100567	0.63 
310.034	-0.1660	-0.0508	1.0259	-0.3662	0.1221	7.4463	-3.0542	10.2887	-16.6058	43.6500	-42	170	-180	100567	0.63 
310.144	-0.1611	-0.0415	1.0269	-0.9766	0.7324	4.8828	-2.9938	10.2997	-16.4575	43.6500	-41	167	-180	100567	0.63 
310.238	-0.1714	-0.0537	1.0273	-1.3428	1.0986	4.8828	-3.0157	10.3381	-16.3037	43.6600	-35	169	-178	100567	0.63 
310.301	-0.1733	-0.0498	1.0298	-0.9155	0.3052	2.9907	-3.0597	10.3656	-16.3367	43.6800	-37	171	-177	100566	0.63 
310.425	-0.1836	-0.0615	1.0220	-0.6104	0.1221	2.3804	-3.1091	10.4095	-16.3751	43.7000	-33	168	-180	100567	0.63 
310.519	-0.1929	-0.0591	1.0317	-0.4883	1.0986	0.9155	-3.1531	10.4755	-16.6113	43.6800	-32	168	-175	100566	0.63 
310.630	-0.1816	-0.0586	1.0259	-0.3662	0.8545	0.0000	-3.1915	10.5249	-16.9135	43.7100	-33	168	-173	100567	0.63 
310.724	-0.1812	-0.0518	1.0254	-0.4883	1.0986	-0.5493	-3.2300	10.5963	-17.2375	43.7000	-32	170	-179	100567	0.63 
310.833	-0.1729	-0.0522	1.0278	-0.4272	0.8545	-0.7935	-3.2574	10.6238	-17.5891	43.7300	-34	173	-178	100567	0.63 
310.927	-0.1748	-0.0586	1.0264	-0.6104	0.3662	-0.1221	-3.2904	10.6677	-17.8308	43.7200	-30	171	-179	100567	0.63 
311.005	-0.1807	-0.0532	1.0273	-0.3662	0.0000	1.2207	-3.2959	10.6677	-18.0066	43.7200	-34	169	-176	100568	0.63 
311.132	-0.1841	-0.0571	1.0229	-0.7324	-0.0610	1.5259	-3.2959	10.6458	-18.1165	43.7300	-34	169	-179	100567	0.63 
311.254	-0.1870	-0.0547	1.0244	-0.5493	0.3662	0.9766	-3.3179	10.6348	-18.2043	43.7300	-33	171	-176	100567	0.63 
311.332