StartTime: 2017-07-14 14:03:03.436
Time(s)	ax(g)	ay(g)	az(g)	wx(deg/s)	wy(deg/s)	wz(deg/s)	AngleX(deg)	AngleY(deg)	AngleZ(deg)	T(°)	hx	hy	hz	Pressure(Pa)	Altitude(m) 
400.212	-0.2446	-0.0542	1.0059	0.1221	1.8311	-1.2207	-3.6475	13.7384	89.5770	44.7500	219	9	-73	100568	0.63 
400.290	-0.2515	-0.0654	1.0068	-0.6714	1.7700	0.6104	-3.6584	13.8702	89.5441	44.7600	218	8	-67	100568	0.63 
400.446	-0.2471	-0.0576	1.0044	-0.1831	1.7090	-0.8545	-3.7024	14.0021	89.4672	44.7400	219	9	-68	100568	0.63 
400.508	-0.2510	-0.0645	0.9990	-0.8545	1.7700	0.6104	-3.7408	14.1229	89.3518	44.7500	218	11	-70	100568	0.63 
400.602	-0.2676	-0.0820	1.0000	-1.2207	-0.6714	-0.4272	-3.8397	14.2383	89.3243	44.7500	215	9	-71	100568	0.63 
400.712	-0.2524	-0.0859	0.9780	0.7935	2.0142	-9.7046	-4.1199	14.1449	88.7256	44.7700	218	10	-69	100568	0.63 
400.868	-0.2402	-0.0732	0.9766	4.8218	8.8501	-10.3149	-4.1913	14.6118	87.6105	44.7500	217	13	-70	100568	0.63 
400.915	-0.2510	-0.0181	0.6963	-1.4038	15.5029	5.6152	-3.7079	15.9631	87.2040	44.7600	220	9	-65	100568	0.63 
401.024	-0.2437	-0.1987	0.5718	18.7378	49.9878	-28.1982	-4.2297	19.8798	86.8799	44.7700	225	11	-57	100568	0.63 
401.102	-0.3145	-0.0791	0.5273	21.7896	27.4048	3.6011	-2.5928	24.6698	85.6110	44.7600	233	15	-43	100568	0.63 
401.243	-0.2217	-0.1250	0.5259	23.3154	-12.6953	-2.5635	0.0714	25.5927	86.6986	44.7500	235	9	-31	100568	0.63 
401.321	-0.7349	-0.0449	1.2104	24.6582	-4.6387	5.4321	2.3456	28.2404	86.2042	44.7400	238	7	-24	100568	0.63 
401.415	-1.0386	0.0190	1.8081	10.8643	3.4180	3.6011	3.4662	29.9432	85.6384	44.7500	240	11	-18	100569	0.63 
401.525	-0.8311	0.1143	1.6602	-10.6812	-21.1182	8.3008	3.6475	29.4543	85.8252	44.7300	241	14	-10	100570	0.63 
401.649	-0.7095	0.0137	1.6938	-26.7944	-21.3013	16.2964	2.0599	27.9053	86.5942	44.7100	239	10	-14	100571	0.63 
401.759	-0.5439	0.2578	1.4341	-15.3198	-41.9312	54.9316	1.1151	24.6368	87.9565	44.6900	234	7	-26	100571	0.63 
401.852	0.1021	-0.2397	-0.7612	16.1743	-65.2466	-27.9541	-1.0547	16.4465	89.7198	44.6300	227	4	-48	100571	0.63 
401.946	-0.0825	0.0054	-0.0225	0.6104	-49.0723	-28.6865	-2.0874	12.9913	87.3853	44.6000	219	10	-71	100570	0.63 
402.040	-0.0693	-0.0386	-0.0537	-0.1221	-30.7007	-6.2866	1.6589	7.0093	86.8524	44.6100	212	17	-94	100570	0.63 
402.150	-0.3320	0.0068	-0.1328	-16.8457	-6.5918	18.7378	3.1036	5.5096	85.9845	44.5900	204	21	-96	100569	0.63 
402.259	-2.1636	-0.3037	5.6411	-4.0283	152.7710	-103.2104	1.4612	17.7264	84.0784	44.5800	214	24	-83	100568	0.63 
402.337	-1.1914	0.0874	1.6392	-6.4697	80.9937	-4.6997	3.8892	11.3379	82.2491	44.5800	213	30	-82	100569	0.63 
402.462	0.0283	0.0264	0.3140	-28.8086	74.0967	15.7471	4.6912	7.6355	84.7375	44.5500	212	27	-85	100569	0.63 
402.571	0.0527	0.0366	0.8330	-14.7705	-16.8457	2.0752	2.6257	10.3326	85.9296	44.5600	217	25	-76	100568	0.63 
402.665	-0.1416	-0.0737	1.0000	-10.1318	-5.1270	6.1035	1.2085	9.7394	86.5723	44.5500	219	21	-74	100568	0.63 
402.759	-0.1333	-0.0605	0.9478	-5.1880	4.1504	2.8687	0.3680	9.3604	86.6492	44.5700	216	24	-80	100568	0.63 
402.853	-0.1992	0.0010	0.9814	3.7842	-1.9531	-12.2070	0.0330	9.5032	85.8801	44.5700	220	25	-77	100568	0.63 
402.978	-0.2402	-0.2197	1.0112	0.4883	-4.7607	-2.1973	-0.1703	9.5966	84.7540	44.5800	217	28	-76	100568	0.63 
403.071	-0.1807	-0.0898	0.9800	-3.9673	-2.0142	0.6104	-0.6042	9.4757	83.9355	44.6100	216	32	-75	100568	0.63 
403.150	-0.2432	-0.0811	0.9727	-0.8545	-0.7324	3.1738	-0.9283	9.7668	83.8916	44.5900	217	32	-77	100567	0.63 
403.274	-0.2061	-0.0127	0.9985	-4.2725	-2.0752	11.2915	-1.0327	9.8328	84.5068	44.5900	217	28	-77	100568	0.63 
403.369	-0.2275	-0.1050	1.0015	-1.5869	-1.0986	12.6953	-1.3403	9.9261	85.8417	44.5900	213	27	-78	100568	0.63 
403.493	-0.2432	-0.0869	1.0068	2.2583	2.6245	4.1504	-1.3898	10.2448	86.4679	44.5900	216	27	-80	100568	0.63 
403.572	-0.2163	-0.0327	1.0010	-2.0752	-1.2817	4.4556	-1.5326	10.6293	86.6547	44.6100	218	23	-76	100568	0.63 
403.681	-0.2456	-0.0713	1.0034	-1.4038	2.0142	1.1597	-1.8347	11.0083	86.9238	44.6100	217	24	-75	100568	0.63 
403.790	-0.2427	-0.0503	1.0054	0.4272	2.0142	-0.2441	-1.9666	11.3818	86.7316	44.6200	219	23	-74	100568	0.63 
403.899	-0.2451	-0.0684	0.9883	0.8545	2.6855	-0.5493	-2.0050	11.7499	86.5338	44.6100	218	23	-74	100568	0.63 
403.962	-0.2627	-0.0635	0.9756	1.0376	5.9814	-1.2207	-1.9501	12.3047	86.2537	44.6200	218	19	-71	100568	0.63 
404.087	-0.2827	-0.0381	0.9712	0.0610	6.5918	5.3101	-1.9446	13.2001	86.2921	44.6100	219	21	-72	100568	0.63 
404.181	-0.3203	-0.0742	0.9946	-0.1831	22.2778	4.3945	-1.9061	14.8370	86.8634	44.6200	223	23	-68	100569	0.63 
404.290	-0.3208	-0.0801	0.9233	4.2725	30.8838	-4.8218	-1.9226	17.4683	86.6272	44.6200	225	21	-60	100569	0.63 
404.415	-0.2524	0.0723	0.6343	13.1226	43.2129	0.0610	-1.3184	21.4288	86.0175	44.6400	231	20	-47	100569	0.63 
404.509	-0.2104	-0.0845	0.3467	2.2583	50.4150	6.2866	-0.4175	26.3727	87.6709	44.6400	236	16	-32	100569	0.63 
404.603	-0.2021	0.1133	0.3306	16.7847	28.9307	13.6719	-0.2802	31.1682	86.0175	44.6400	242	15	-16	100569	0.63 
404.712	-0.1860	-0.0776	0.5366	19.1040	29.2358	38.1470	4.0814	32.4371	88.4454	44.6300	247	15	-5	100570	0.63 
404.790	-1.0615	0.0620	1.4961	21.3623	0.5493	-14.0381	5.0262	34.0741	87.5226	44.6300	246	12	7	100571	0.63 
404.915	-1.6387	0.2778	2.1772	16.2964	-8.0566	-17.0898	6.3666	34.0521	86.0010	44.6100	245	15	8	100571	0.63 
405.009	-0.8838	0.1230	1.6426	-23.1934	-26.7944	-17.8223	4.0649	32.4921	83.4521	44.5800	241	24	5	100573	0.63 
405.134	-0.5923	-0.0688	1.4932	-25.2075	-37.6587	7.8125	1.0986	27.4933	83.0841	44.5700	241	27	-12	100573	0.63 
405.243	0.0718	0.1123	0.0688	-7.9956	-89.8438	-23.5596	0.4504	19.4678	84.4409	44.5400	236	24	-31	100574	0.63 
405.353	-0.4067	0.1611	-0.2847	4.6997	-7.5073	-9.2773	0.0165	12.4805	81.3977	44.5000	226	33	-64	100573	0.63 
405.446	0.1108	0.0347	0.0444	-2.6245	-17.3950	18.9209	1.4832	10.9259	84.1882	44.4600	221	30	-75	100572	0.63 
405.540	-0.0479	-0.0259	-0.0156	-12.3291	1.0986	13.0005	-0.0604	8.0200	87.1161	44.4800	221	27	-81	100571	0.63 
405.635	-1.4248	-0.5649	2.6982	-32.5317	200.2563	-50.2319	-2.2192	14.6283	88.3466	44.4600	224	26	-71	100570	0.63 
405.759	0.4355	0.2856	0.8701	3.6621	-66.2842	63.7817	-1.2085	10.3931	88.6981	44.4500	226	26	-61	100570	0.63 
405.853	-0.1426	-0.2344	0.5122	-4.4556	21.7896	-11.4136	-2.9498	10.8600	90.7800	44.4400	222	18	-69	100570	0.63 
405.963	-0.2490	-0.0332	1.0073	2.4414	-26.9165	3.9673	-3.5211	12.6727	89.7693	44.4500	226	21	-66	100570	0.63 
406.041	-0.2441	0.0356	0.9941	-3.6621	-13.8550	2.7466	-3.7628	11.3049	89.0717	44.4400	225	22	-71	100570	0.63 
406.165	-0.1753	-0.1021	0.9746	-5.0659	-5.8594	-1.3428	-4.1583	10.1184	89.7638	44.4400	220	21	-74	100570	0.63 
406.243	-0.2275	-0.0513	1.0298	2.7466	-4.3945	-8.7280	-4.2737	9.9976	88.8354	44.4400	217	21	-73	100570	0.63 
406.353	-0.2051	-0.0391	1.0151	4.4556	-7.7515	-13.7329	-4.1034	9.3384	87.4841	44.4600	218	23	-74	100570	0.63 
406.447	-0.2329	-0.1323	1.0850	-0.7324	-2.7466	6.5308	-4.0979	9.0198	87.1106	44.4600	217	27	-78	100570	0.63 
406.556	-0.2168	-0.0781	1.0146	-1.4038	-0.1831	3.6011	-4.1418	8.8660	87.4951	44.4900	216	27	-82	100570	0.63 
406.651	-0.1860	-0.0747	1.0117	-2.0142	2.1362	3.6621	-4.1034	9.1022	87.6709	44.4800	215	27	-81	100570	0.63 
406.791	-0.1904	-0.0747	0.9922	0.4272	-0.1831	0.6714	-4.1693	9.4812	87.5995	44.4900	219	24	-77	100570	0.63 
406.869	-0.2041	-0.0347	1.0024	-0.3052	2.6855	1.0986	-4.0649	10.0635	87.1490	44.5000	217	27	-79	100570	0.63 
406.963	-0.1938	-0.0474	1.0083	-1.7700	3.9063	4.8218	-4.0210	10.5194	87.1655	44.5000	220	25	-81	100570	0.63 
407.041	-0.2168	-0.1025	1.0181	-2.6245	5.6152	6.3477	-4.1418	11.1346	87.4402	44.5000	221	28	-81	100571	0.63 
407.181	-0.2476	-0.0757	1.0044	0.2441	3.9673	2.8076	-4.1638	11.7773	87.6544	44.4900	219	24	-73	100571	0.63 
407.260	-0.2515	-0.0669	1.0151	-0.2441	1.9531	1.2207	-4.1199	12.2278	87.6160	44.4900	224	24	-74	100571	0.63 
407.385	-0.2578	-0.0586	0.9937	0.1221	1.1597	1.4648	-4.0704	12.4805	87.5446	44.5200	224	20	-70	100571	0.63 
407.494	-0.2378	-0.0645	1.0059	-0.6104	2.5635	2.1973	-4.0265	12.7551	87.5885	44.5200	225	21	-69	100571	0.63 
407.557	-0.2720	-0.0625	0.9971	-0.7935	5.3101	0.0610	-4.0594	13.3154	87.5336	44.5400	224	22	-68	100571	0.63 
407.682	-0.2710	-0.0557	0.9907	-1.5869	5.7373	1.5259	-4.1418	13.9691	87.4017	44.5400	224	23	-70	100571	0.63 
407.775	-0.2920	-0.0664	0.9795	-0.6714	10.0708	3.1128	-4.1803	14.7986	87.4622	44.5400	225	22	-63	100570	0.63 
407.870	-0.3682	-0.0630	0.9722	-1.7700	23.0103	7.9346	-4.2517	16.4960	87.6160	44.5500	226	19	-58	100570	0.63 
407.994	-0.3291	-0.1357	0.8359	3.4790	27.9541	3.1738	-4.0375	19.0118	88.3356	44.5600	233	18	-53	100571	0.63 
408.072	-0.3311	-0.0542	0.6655	5.7983	32.3486	-15.0757	-4.2737	22.5824	87.1490	44.5600	238	17	-41	100570	0.63 
408.197	-0.3057	-0.0923	0.4902	14.7095	40.1611	-14.8315	-4.2572	26.9824	85.3802	44.5800	238	19	-27	100570	0.63 
408.276	-0.2935	-0.0801	0.5410	28.8086	39.4897	-17.3340	-2.8235	30.7892	84.5728	44.5700	243	22	-15	100570	0.63 
408.400	-0.3911	-0.1108	0.5029	23.6816	44.1895	13.7939	0.8899	32.0032	86.5833	44.5800	248	20	-6	100571	0.63 
408.495	-0.7910	-0.0093	1.3130	8.4839	-1.5869	20.8130	4.0540	35.0189	88.2092	44.5800	249	13	4	100572	0.63 
408.619	-1.6563	0.1919	2.2256	5.3711	-16.9678	-1.4648	4.9109	33.3875	88.8080	44.5700	244	6	3	100572	0.63 
408.698	-0.9102	0.2080	1.6748	-21.9727	-2.9297	-17.8223	3.5321	32.7393	87.0612	44.5300	245	10	1	100573	0.63 
408.822	-0.5630	0.0063	1.4150	-23.4985	-40.8325	0.6104	0.1703	30.0311	85.6714	44.5200	242	15	1	100574	0.63 
408.916	-0.7222	0.0581	1.3647	-11.2305	-77.9419	35.6445	-1.0382	26.4386	85.8856	44.4700	241	17	-13	100574	0.63 
409.041	-0.3730	-0.1309	-0.5552	12.5732	-74.8291	-17.7002	-3.1970	16.5344	86.9568	44.4400	235	14	-46	100574	0.63 
409.119	-0.1938	0.0396	-0.0444	-3.2959	-24.1089	0.2441	-3.0872	13.0627	84.1333	44.4100	223	18	-70	100573	0.63 
409.244	-0.1001	-0.0122	-0.0093	-8.3008	-4.2114	17.2119	-1.6205	11.5356	85.2484	44.3900	216	20	-80	100573	0.63 
409.354	-0.0649	-0.0024	-0.1050	-11.2305	10.8643	28.5034	-1.4886	12.4365	85.5725	44.3900	220	22	-80	100571	0.63 
409.447	-3.2090	0.0234	3.5884	29.1138	-117.9199	10.1318	-5.6854	23.3295	81.7053	44.3700	227	24	-50	100570	0.63 
409.572	-1.7544	-0.2134	1.0137	-16.1743	74.7681	-28.3203	-3.5486	18.0890	85.4846	44.3600	225	18	-61	100571	0.63 
409.635	-0.5884	-0.1328	1.5078	2.0142	77.1484	-21.9116	-5.0098	17.5012	86.1768	44.3500	227	11	-60	100571	0.63 
409.791	-0.1289	-0.1641	0.9893	0.7935	-3.3569	-13.6108	-4.0869	14.1888	86.2427	44.3500	228	12	-61	100571	0.63 
409.838	-0.2974	-0.0513	1.0205	-9.7656	-14.8926	6.8970	-4.1528	13.6285	86.1658	44.3500	225	16	-64	100571	0.63 
409.932	-0.3511	-0.0596	1.0884	-4.0894	8.8501	-5.3711	-5.0537	13.6121	86.3580	44.3700	221	17	-66	100571	0.63 
410.041	-0.3164	-0.0703	1.0039	-1.7700	3.1128	-5.6152	-5.3943	13.8373	85.6110	44.3800	225	19	-64	100571	0.63 
410.151	-0.3613	-0.0884	1.0532	0.0000	4.8828	-0.6104	-5.6085	14.4196	85.1825	44.3900	223	19	-61	100571	0.63 
410.260	-0.3389	-0.0771	1.0283	-1.6479	-0.3052	2.0142	-5.5536	14.6448	85.3528	44.4100	225	21	-66	100570	0.63 
410.354	-0.3086	-0.0635	1.0156	0.0000	-2.2583	2.8076	-5.4053	14.6008	85.6439	44.3900	223	22	-64	100570	0.63 
410.463	-0.3018	-0.0732	1.0024	-0.1221	-2.8687	-1.3428	-5.2679	14.3372	85.7428	44.4000	221	19	-65	100570	0.63 
410.557