StartTime: 2017-07-14 14:03:03.436
Time(s)	ax(g)	ay(g)	az(g)	wx(deg/s)	wy(deg/s)	wz(deg/s)	AngleX(deg)	AngleY(deg)	AngleZ(deg)	T(°)	hx	hy	hz	Pressure(Pa)	Altitude(m) 
5.392	-0.1978	-0.0527	1.0293	-0.3662	-0.4272	1.2817	-3.0103	10.2393	84.4684	43.8800	200	22	-76	100579	0.62 
5.486	-0.2095	-0.0474	1.0254	-0.8545	-0.4883	0.3662	-3.0542	10.2612	84.4684	43.8800	201	27	-79	100579	0.62 
5.611	-0.2095	-0.0532	1.0156	-0.6714	-0.9766	0.4883	-3.1036	10.2612	84.4189	43.8800	200	26	-78	100578	0.62 
5.689	-0.2026	-0.0503	1.0210	-0.4272	-2.6245	-0.1221	-3.1256	10.1569	84.3256	43.8900	204	25	-79	100579	0.62 
5.783	-0.2002	-0.0537	1.0264	-0.3662	-4.0283	-1.1597	-3.1586	9.9426	84.1992	43.8900	200	22	-79	100578	0.62 
5.893	-0.1973	-0.0562	1.0210	0.3662	-7.5684	-2.5024	-3.1750	9.4263	84.0619	43.8900	197	26	-81	100578	0.62 
6.002	-0.2007	-0.0474	1.0259	0.3052	-9.8877	-1.2207	-3.1476	8.7122	83.8641	43.9100	196	26	-82	100578	0.62 
6.127	-0.1938	-0.0513	1.0298	0.4883	-14.4653	-0.1221	-3.0817	7.6410	83.8037	43.9000	195	26	-85	100577	0.62 
6.221	-0.1748	-0.0449	1.0288	1.1597	-20.1416	-1.5869	-2.9773	6.0754	83.7488	43.9200	193	28	-90	100577	0.62 
6.330	-0.1631	-0.0435	1.0176	1.8921	-25.1465	-0.9155	-2.8235	4.0979	83.6719	43.9100	186	27	-100	100577	0.62 
6.409	-0.1665	-0.0454	1.0127	1.6479	-27.8320	1.2207	-2.6147	1.8073	83.7268	43.9300	179	25	-106	100577	0.62 
6.502	-0.1592	-0.0366	0.9805	2.3193	-33.5083	0.8545	-2.3840	-0.6812	83.8422	43.9100	173	28	-115	100577	0.62 
6.611	-0.1528	-0.0205	0.9170	2.4414	-40.7104	-0.9155	-2.1039	-3.7573	83.8477	43.9400	162	26	-122	100577	0.62 
6.736	-0.1631	-0.0264	0.8271	2.8076	-41.4429	-1.5869	-1.8347	-7.0313	83.7433	43.9200	148	26	-132	100577	0.62 
6.830	-0.2402	-0.0220	0.6016	5.2490	-46.9360	3.5400	-1.3623	-9.9371	83.5455	43.9300	137	23	-143	100577	0.62 
6.939	0.0337	0.0054	0.4194	4.8828	-82.0313	-8.5449	-0.8185	-15.5127	83.6499	43.9500	115	24	-157	100577	0.62 
7.034	0.3330	-0.1069	-0.3784	-17.5171	-107.1167	14.3433	-2.0929	-29.4324	85.2649	43.9000	84	18	-176	100576	0.62 
7.158	2.8496	-0.6421	2.1348	-36.1938	-193.0542	34.1187	-9.4537	-45.7306	92.5488	43.9200	39	18	-188	100577	0.62 
7.221	0.9839	-0.5298	0.1709	-28.5645	-110.2295	27.7710	-24.3896	-65.0171	106.6608	43.9000	-28	23	-192	100578	0.62 
7.377	0.7085	-0.0688	0.0464	-13.4888	-36.7432	-1.5259	-39.4025	-73.9105	121.2726	43.8800	-74	33	-177	100579	0.62 
7.455	0.6187	-0.0830	-0.1040	-13.8550	-24.9023	7.6294	-53.9209	-76.3605	134.7308	43.8500	-91	38	-172	100579	0.62 
7.564	1.1284	-0.3477	0.2407	13.5498	40.8325	-17.2119	-50.7349	-76.5747	131.4954	43.8700	-99	39	-166	100580	0.62 
7.689	1.1758	-0.1128	0.2158	13.4277	22.5830	13.2446	-38.4851	-74.8059	120.7782	43.8500	-96	35	-170	100582	0.62 
7.752	0.9517	-0.2920	0.2192	-4.5776	34.4849	29.7241	-37.0569	-72.5208	119.8224	43.8700	-85	34	-177	100582	0.62 
7.877	0.9258	-0.2495	-0.1714	-11.1694	48.0957	15.9912	-29.4269	-70.2850	111.0278	43.8600	-72	37	-177	100582	0.62 
8.002	1.0649	-0.4922	0.6611	20.7520	82.0923	-28.6255	-22.9395	-64.8413	105.2051	43.8500	-51	35	-186	100582	0.62 
8.096	0.6450	-0.2974	0.7754	-4.3335	-14.9536	-10.4370	-22.8790	-64.2261	105.1501	43.8600	-42	32	-187	100582	0.62 
8.205	0.8467	-0.1445	0.4248	-2.4414	-30.1514	-12.6953	-22.8461	-65.1984	105.3644	43.8600	-43	30	-185	100583	0.62 
8.300	1.2114	-0.0986	0.1201	4.0283	-24.4141	-4.0283	-24.3457	-69.2468	107.0288	43.8700	-58	31	-186	100583	0.62 
8.424	0.9609	-0.1387	0.1885	0.1221	43.1519	-3.3569	-24.4830	-68.4558	107.0728	43.8700	-60	27	-186	100584	0.62 
8.533	0.8535	-0.1367	0.5127	0.5493	25.6348	7.2021	-22.1320	-65.0061	104.8260	43.8800	-50	30	-184	100583	0.62 
8.627	0.8706	-0.1392	0.5952	4.1504	-8.1787	-15.1978	-21.4893	-62.8638	104.3976	43.8600	-44	32	-187	100583	0.62 
8.737	0.9214	-0.1343	0.3198	-2.0142	-16.9678	-4.0894	-21.8848	-64.6655	104.6173	43.8600	-42	33	-190	100583	0.62 
8.862	0.9790	-0.1543	0.3608	0.8545	6.4087	2.1973	-22.4835	-65.3906	105.2161	43.8900	-47	29	-188	100584	0.62 
8.940	0.8716	-0.1528	0.4341	0.2441	5.4321	1.6479	-22.0276	-64.6600	104.8755	43.8900	-49	31	-187	100583	0.62 
9.080	0.8989	-0.1392	0.4697	0.4272	1.6479	-0.1831	-21.4673	-64.1327	104.3591	43.8900	-47	31	-189	100583	0.62 
9.190	0.9194	-0.1392	0.4204	-0.5493	-2.8076	-0.1831	-21.5442	-64.1711	104.4360	43.8900	-47	29	-188	100583	0.62 
9.284	0.9194	-0.1538	0.4282	-0.3662	0.2441	-0.3052	-21.6211	-64.2096	104.5129	43.8800	-47	30	-184	100584	0.62 
9.424	0.9063	-0.1445	0.4297	-0.2441	-0.1221	1.0986	-21.5771	-64.1656	104.4800	43.9000	-48	30	-189	100584	0.62 
9.502	0.9150	-0.1450	0.4189	-0.1831	0.5493	0.0000	-21.5112	-64.1382	104.4360	43.9100	-46	30	-188	100583	0.62 
9.612	0.9004	-0.1528	0.4336	-0.4272	-0.3662	0.7324	-21.4069	-64.0393	104.3372	43.9100	-44	29	-189	100584	0.62 
9.690	0.8965	-0.1411	0.4517	-0.6104	-1.7700	0.5493	-21.5991	-64.0668	104.5404	43.9100	-46	31	-183	100584	0.62 
9.815	0.9194	-0.1465	0.4175	-0.3052	-1.4648	-0.0610	-21.7255	-64.3030	104.7052	43.9300	-45	28	-187	100584	0.62 
9.924	0.9121	-0.1445	0.4160	-0.3052	0.2441	0.7935	-21.7365	-64.3744	104.7382	43.9300	-47	30	-190	100584	0.62 
10.049	0.9106	-0.1489	0.4043	-0.4883	1.4648	-0.3662	-21.6486	-64.3304	104.6393	43.9400	-46	32	-187	100584	0.62 
10.128	0.9175	-0.1406	0.4302	-0.3662	3.1738	0.4272	-21.2915	-63.9954	104.2108	43.9400	-49	32	-188	100584	0.62 
10.252	0.9116	-0.1401	0.4307	-0.2441	2.0752	1.3428	-21.2256	-63.7427	104.1779	43.9400	-46	29	-187	100583	0.62 
10.393	0.9106	-0.1401	0.4199	-0.0610	-0.2441	-0.3052	-21.1432	-63.5724	104.1284	43.9300	-46	28	-185	100583	0.62 
10.444	0.9063	-0.1440	0.4287	-0.1221	1.3428	0.4272	-21.0059	-63.4296	103.9911	43.9500	-43	30	-188	100583	0.62 
10.600	0.8940	-0.1509	0.4409	-0.3662	1.0376	1.0986	-20.9729	-63.2648	103.9526	43.9500	-42	32	-188	100583	0.62 
10.694	0.9063	-0.1445	0.4341	-0.1831	1.7700	0.0000	-20.8740	-63.1659	103.7988	43.9600	-45	30	-185	100583	0.62 
10.757	0.9023	-0.1436	0.4424	-0.2441	1.6479	0.4272	-20.6873	-62.9791	103.6176	43.9700	-42	28	-186	100583	0.62 
10.867	0.9077	-0.1440	0.4434	-0.2441	1.4648	0.6104	-20.5389	-62.8143	103.4637	43.9500	-42	32	-187	100584	0.62 
11.038