StartTime: 2017-07-14 14:03:03.436
Time(s)	ax(g)	ay(g)	az(g)	wx(deg/s)	wy(deg/s)	wz(deg/s)	AngleX(deg)	AngleY(deg)	AngleZ(deg)	T(°)	hx	hy	hz	Pressure(Pa)	Altitude(m) 
290.355	-0.2329	0.0732	1.0132	1.2207	-10.2539	4.1504	3.6145	10.3491	84.8584	45.6200	195	17	-73	100577	0.62 
290.480	-0.1934	0.0811	1.0186	0.4272	-19.1040	5.3711	3.7958	8.8879	85.1331	45.6500	188	12	-72	100577	0.62 
290.543	-0.1660	0.0771	1.0376	0.4272	-33.3252	8.5449	3.9441	6.2897	85.5121	45.6300	185	12	-81	100577	0.62 
290.699	-0.0889	0.0928	1.0171	-1.8311	-42.9077	4.2114	3.8672	2.5708	85.6824	45.6400	179	11	-89	100577	0.62 
290.762	-0.0293	0.0830	1.0308	-2.5635	-54.6265	10.6201	3.7024	-2.1808	85.9296	45.6300	167	10	-102	100577	0.62 
290.855	0.0771	0.0674	1.0430	-4.9438	-66.3452	15.1978	3.2574	-8.1628	86.7975	45.6500	149	8	-119	100577	0.62 
290.965	0.2002	0.0396	0.9966	-9.5825	-79.9561	17.7612	2.3071	-15.3644	88.0005	45.6500	130	6	-136	100577	0.62 
291.059	0.3872	0.0161	1.0625	-4.6997	-92.2241	12.6953	0.6152	-22.9230	89.8627	45.6300	107	7	-160	100577	0.62 
291.168	0.3589	-0.0112	0.7905	-2.3193	-105.7739	32.7148	-0.6921	-35.1453	91.9501	45.6400	71	6	-175	100577	0.62 
291.293	0.8140	-0.0044	0.7441	-4.6997	-103.5156	27.6489	-3.0322	-44.7363	95.3558	45.6500	34	2	-187	100577	0.62 
291.372	0.9341	-0.1050	0.5249	-4.2725	-128.7231	6.6528	-6.7072	-56.4038	99.4977	45.6400	-3	2	-187	100577	0.62 
291.496	1.3164	0.1167	0.1099	0.4883	-77.9419	-16.5405	-8.8330	-68.7360	101.1182	45.6100	-48	5	-179	100577	0.62 
291.637	0.9307	-0.0640	0.0557	-4.8218	30.5786	0.8545	-10.1019	-71.5924	102.3102	45.6200	-73	6	-173	100577	0.62 
291.684	0.8516	-0.0796	0.6118	-7.2021	80.6274	18.8599	-12.4860	-65.4126	103.6780	45.6100	-62	8	-176	100578	0.62 
291.812	0.7798	-0.1592	0.6782	-1.7090	0.1831	1.4038	-12.9858	-61.4465	103.8538	45.6100	-42	10	-181	100578	0.62 
291.937	0.9849	-0.1245	0.2549	-1.4648	-20.6909	2.1362	-14.5349	-63.2977	105.4468	45.5900	-47	10	-183	100578	0.62 
292.016	0.9004	-0.0630	0.4238	-0.1831	15.5029	-0.1831	-14.2822	-63.2703	104.9469	45.5700	-46	10	-184	100579	0.62 
292.125	0.8818	-0.1094	0.5093	-1.2207	3.7842	2.6245	-14.0955	-62.1497	104.5129	45.5700	-40	12	-185	100579	0.62 
292.297	0.9316	-0.1113	0.4443	-0.1831	0.6104	0.0000	-14.2108	-62.0782	104.5953	45.5500	-40	10	-186	100579	0.62 
292.375	0.9082	-0.0991	0.4307	-0.9766	1.0376	0.5493	-14.3591	-62.2485	104.5679	45.5700	-40	14	-185	100579	0.62 
292.469	0.8882	-0.1045	0.4941	-0.5493	2.2583	1.5869	-14.2822	-61.9409	104.3097	45.5500	-38	14	-182	100579	0.62 
292.547	0.9063	-0.1079	0.4390	-0.5493	-1.1597	0.4272	-14.4305	-62.0398	104.3097	45.5700	-41	14	-183	100579	0.62 
292.703	0.8984	-0.0996	0.4741	-0.3662	1.0986	0.3052	-14.4141	-61.9684	104.1339	45.5500	-41	13	-184	100579	0.62 
292.781	0.8872	-0.0996	0.4482	-0.4883	-4.1504	1.3428	-14.5074	-62.0673	104.1614	45.5600	-38	11	-183	100579	0.62 
292.906	0.8887	-0.0962	0.4810	0.0000	0.3052	-0.3662	-14.4580	-62.0837	104.0790	45.5500	-39	8	-181	100579	0.62 
293.016	0.9160	-0.1084	0.4595	-0.6104	-3.7231	-0.5493	-14.4086	-62.2046	103.9856	45.5600	-38	11	-179	100579	0.62 
293.109	0.8940	-0.0981	0.4487	-0.5493	1.4038	1.3428	-14.5294	-62.5287	104.0131	45.5700	-41	11	-180	100579	0.62 
293.204	0.9136	-0.0928	0.4707	-0.8545	2.0142	1.0986	-14.5953	-62.2595	103.9691	45.5600	-40	12	-184	100579	0.62 
293.328	0.8999	-0.1050	0.4531	-0.3052	-0.3052	0.4883	-14.6283	-62.3254	103.9252	45.5600	-40	15	-180	100579	0.62 
293.422	0.8979	-0.1050	0.4688	-0.0610	0.1221	-0.1831	-14.5569	-62.3584	103.7659	45.5600	-42	12	-181	100579	0.62 
293.547	0.8931	-0.1006	0.4609	-0.6714	0.6104	1.2207	-14.4965	-62.3694	103.6450	45.5600	-39	11	-180	100580	0.62 
293.625	0.9092	-0.0981	0.4531	-0.6104	0.1221	1.1597	-14.6558	-62.4188	103.7549	45.5600	-41	10	-184	100579	0.62 
293.735	0.8394	-0.1313	0.4946	0.5493	-4.8218	-7.5073	-14.5624	-62.4957	103.6340	45.5500	-40	13	-185	100579	0.62 
293.844	0.7373	-0.1484	0.5459	0.8545	-23.0103	-9.3384	-13.2605	-63.9789	102.3706	45.5600	-42	12	-181	100579	0.62 
294.000	0.5518	0.0464	0.4668	4.6387	-20.2637	-2.1362	-12.9419	-67.1979	101.9037	45.5500	-54	12	-179	100579	0.62 
294.052	1.1621	-0.1270	0.1309	3.9063	3.0518	0.3052	-17.2650	-68.8898	106.6553	45.5500	-66	11	-177	100579	0.62 
294.170	1.1797	-0.0649	0.4380	3.5400	81.6650	-8.7891	-12.1948	-63.9899	101.3708	45.5500	-53	10	-176	100579	0.62 
294.295	0.9043	-0.2012	0.6299	6.6528	92.7734	-14.8926	-8.0365	-55.8600	97.0917	45.5400	-28	10	-183	100580	0.62 
294.373	0.5586	0.0054	0.6685	13.4277	79.8340	-29.7852	-2.4609	-47.0270	91.3788	45.5400	2	4	-186	100580	0.62 
294.513	0.3838	0.0220	0.7500	2.5024	81.5430	-9.8877	0.6866	-37.4524	88.0225	45.5400	38	1	-180	100580	0.62 
294.577	0.4297	0.0732	0.8394	-0.7935	92.4683	-11.3525	1.4832	-28.1689	86.6547	45.5500	69	1	-171	100580	0.62 
294.701	0.2690	0.0635	0.9951	0.1221	91.8579	-19.0430	2.3676	-18.6438	84.9188	45.5400	99	2	-156	100580	0.62 
294.780	0.1069	0.1006	1.0469	1.8311	81.7261	-12.2070	2.7026	-9.8547	83.4412	45.5300	132	7	-139	100579	0.62 
294.920	-0.0293	0.1035	1.0200	1.8311	61.5845	16.5405	2.8510	-2.6093	84.2926	45.5300	153	8	-119	100580	0.62 
294.999	-0.1963	0.1182	0.9873	0.1831	49.9268	20.9351	3.2904	2.9773	86.5558	45.5200	174	4	-103	100580	0.62 
295.107	-0.2114	0.0815	1.0488	0.0000	30.0293	-8.7280	3.4387	7.3718	87.3798	45.5200	184	0	-85	100580	0.62 
295.232	-0.2417	0.0938	1.0283	-4.3335	7.5684	-10.1929	3.0048	9.3768	86.1383	45.5300	193	3	-76	100580	0.62 
295.310	-0.2041	0.0981	1.0552	-7.6904	-9.3994	4.5776	2.5269	9.5966	86.0504	45.5300	189	8	-73	100580	0.62 
295.389	-0.1411	0.0332	1.0220	-6.6528	-6.0425	1.1597	1.8732	8.5748	86.4185	45.5300	186	4	-77	100580	0.62 
295.514	-0.1216	0.0278	1.0117	-5.7983	0.9155	0.6104	1.2799	8.1848	86.5833	45.5400	188	2	-77	100580	0.62 
295.607	-0.1484	0.0259	1.0410	-2.8076	2.9907	1.3428	0.9283	8.3386	86.8030	45.5400	187	3	-75	100580	0.62 
295.732	-0.1509	0.0239	1.0420	-1.5259	2.5024	0.5493	0.7745	8.5803	86.9733	45.5400	188	4	-75	100580	0.62 
295.826	-0.1509	0.0259	1.0205	-0.5493	1.5869	0.0000	0.7086	8.7122	87.0392	45.5400	195	6	-75	100580	0.62 
295.920	-0.1636	0.0327	1.0181	0.5493	1.7700	-0.3052	0.7471	8.7781	87.0447	45.5500	191	6	-75	100580	0.62 
296.014	-0.1587	0.0308	1.0234	0.7324	-0.4272	0.1221	0.8844	8.8055	87.1051	45.5400	191	6	-75	100580	0.62 
296.139	-0.1587	0.0356	1.0317	0.9766	-1.0986	1.4648	1.0327	8.7726	87.1600	45.5300	190	3	-77	100580	0.62 
296.248	-0.1475	0.0371	1.0195	1.2207	-0.1221	0.4272	1.2030	8.6902	87.2424	45.5300	194	7	-76	100580	0.62 
296.326	-0.1440	0.0396	1.0225	1.2817	-0.0610	0.6104	1.3843	8.5968	87.2754	45.5500	189	7	-80	100580	0.62 
296.407	-0.1479	0.0464	1.0249	0.7324	-2.9297	1.7090	1.5710	8.4924	87.3688	45.5600	189	6	-75	100579	0.62 
296.547	-0.1548	0.0479	1.0303	0.2441	-2.0142	1.2817	1.6919	8.3331	87.4292	45.5300	187	4	-75	100579	0.62 
296.625	-0.1431	0.0483	1.0166	-0.1221	-3.4790	0.4272	1.7468	8.0365	87.4512	45.5300	189	7	-77	100579	0.62 
296.750	-0.1333	0.0459	1.0283	0.3052	-3.8452	1.1597	1.8127	7.6355	87.5226	45.5700	187	8	-85	100578	0.62 
296.844	-0.1416	0.0483	1.0410	0.0610	-6.3477	2.3193	1.9006	7.1301	87.6819	45.5500	188	4	-81	100578	0.62 
296.922	-0.0947	0.0527	1.0132	0.5493	-5.6763	2.1973	1.9995	6.4764	87.8687	45.5600	186	2	-82	100578	0.62 
297.047	-0.1094	0.0532	1.0313	0.3052	-5.7983	1.0986	2.0984	5.8173	88.0664	45.5700	185	1	-82	100577	0.62 
297.157	-0.1079	0.0513	1.0313	-0.9155	-9.2773	1.8921	2.1588	5.1691	88.1763	45.5700	184	2	-84	100578	0.62 
297.220	-0.0889	0.0571	1.0425	-1.1597	-15.3198	5.3101	2.1423	4.0320	88.3466	45.5600	177	2	-89	100578	0.62 
297.360	-0.0781	0.0586	1.0234	-1.9531	-24.2310	1.2817	1.9940	2.2028	88.5114	45.5600	174	3	-93	100579	0.62 
297.438	-0.0415	0.0361	1.0361	-3.2349	-39.9170	0.0610	1.7688	-0.8844	88.4564	45.5700	170	2	-103	100579	0.62 
297.578	-0.0181	0.0391	1.0337	-4.6387	-57.6782	-4.0894	1.4282	-5.3668	88.0444	45.5900	157	3	-114	100579	0.62 
297.657	0.0991	0.0283	1.0400	-2.6245	-69.4580	4.1504	1.0657	-11.2555	87.8412	45.5700	145	8	-136	100579	0.62 
297.735	0.2378	0.0073	1.0244	-1.8311	-103.6987	3.6011	0.7086	-19.4568	88.2642	45.5900	118	5	-154	100579	0.62 
297.860	0.4941	0.0684	0.8770	1.7700	-128.0518	18.5547	1.1536	-31.9318	88.2037	45.5800	86	6	-173	100579	0.62 
297.985	0.6113	0.0352	0.7261	-2.4414	-114.8071	31.4941	-1.1975	-43.3301	92.1149	45.5600	42	2	-183	100579	0.62 
298.079	0.8813	-0.0806	0.5664	-2.3804	-139.7095	14.0991	-4.8615	-55.8051	96.5973	45.5600	0	4	-186	100578	0.62 
298.188	1.3174	-0.0132	-0.0728	-3.1128	-127.5024	26.8555	-11.2280	-70.6860	103.4857	45.5500	-49	3	-182	100578	0.62 
298.267	0.6812	0.1289	-0.3271	-10.4980	-26.4893	-33.1421	-15.2985	-76.2836	107.7869	45.5400	-82	3	-168	100578	0.62 
298.395	0.7964	-0.1050	0.7148	-11.2915	96.1304	10.5591	-12.3706	-67.1759	103.5956	45.5300	-70	4	-170	100578	0.62 
298.520	0.7480	-0.0674	0.6948	-2.6245	-11.2915	-0.7324	-12.3981	-63.4790	102.9419	45.5200	-46	7	-179	100579	0.62 
298.614	0.9951	-0.0889	0.2266	-1.4038	-40.2222	3.6621	-13.6121	-66.3025	104.2657	45.5100	-50	11	-180	100579	0.62 
298.692	0.9634	-0.0562	0.2896	0.7935	16.1133	2.8076	-14.7931	-67.6318	105.5017	45.4900	-61	8	-177	100579	0.62 
298.817	0.8853	-0.0850	0.4414	-2.9907	8.1177	3.6621	-14.7601	-65.8905	105.2106	45.4900	-57	11	-178	100579	0.62 
298.927	0.9570	-0.1016	0.4473	0.1221	0.3052	-1.6479	-14.9689	-65.3632	105.2216	45.4700	-56	10	-180	100579	0.62 
299.021	0.9263	-0.0850	0.3325	-0.5493	-4.0894	1.2207	-15.0293	-65.9729	105.2545	45.4700	-51	10	-180	100579	0.62 
299.130	0.9253	-0.0903	0.4390	-0.5493	7.0801	0.3052	-15.0348	-65.6708	105.1172	45.4900	-51	11	-177	100579	0.62 
299.255	0.9546	-0.0962	0.3892	-0.4883	-2.9907	0.3662	-15.0732	-65.5334	105.0568	45.4800	-52	11	-182	100579	0.62 
299.395	0.9307	-0.0737	0.4136	0.0610	1.5259	-0.4883	-15.0128	-65.6158	104.8755	45.4800	-53	11	-183	100579	0.62 
299.442	0.9312	-0.0977	0.4082	-0.4883	-0.6104	1.0376	-15.0787	-65.5444	104.8700	45.4800	-52	9	-179	100578	0.62 
299.583	0.9224	-0.0903	0.4063	-0.3052	-0.8545	0.1831	-15.2325	-65.5719	104.9524	45.4800	-49	13	-179	100579	0.62 
299.677	0.9194	-0.0928	0.3979	-0.3052	-1.1597	0.7324	-15.3479	-65.6927	104.9854	45.4800	-52	10	-180	100579	0.62 
299.802	0.9253	-0.0947	0.4048	-0.3662	-1.3428	0.8545	-15.4523	-65.7971	105.0568	45.4700	-53	9	-180	100579	0.62 
299.895	0.9307	-0.0894	0.3760	-0.4883	-2.8687	0.7935	-15.6171	-66.0114	105.2271	45.4700	-55	8	-180	100578	0.62 
300.005	0.9282	-0.0977	0.3799	-0.4272	-2.3193	1.2207	-15.6720	-66.1871	105.2380	45.4700	-51	12	-179	100579	0.62 
300.083	0.9194	-0.0938	0.3921	-0.3662	-1.0986	0.8545	-15.7764	-66.3190	105.3314	45.4800	-55	7	-182	100579	0.62 
300.208	0.9209	-0.0928	0.3867	-0.4883	-0.9766	1.3428	-15.8972	-66.3629	105.4468	45.4800	-54	11	-181	100578	0.62 
300.317	0.8931	-0.0942	0.3989	1.3428	-2.6855	-4.5166	-15.2765	-66.4233	104.7656	45.4800	-57	11	-179	100578	0.62 
300.442	0.9761	-0.0894	0.3843	1.0376	-13.9771	-9.5825	-14.4855	-67.8735	104.1449	45.4700	-59	6	-179	100579	0.62 
300.521	0.8833	-0.1597	0.3760	0.2441	-13.6719	0.8545	-14.7327	-69.8456	104.4965	45.4800	-59	5	-179	100579	0.62 
300.661	0.9209	0.0078	0.0298	2.1362	4.6997	11.1084	-18.6877	-71.0541	108.7921	45.4700	-66	7	-173	100579	0.62 
300.786	1.2002	-0.1006	0.3564	4.2114	84.5947	1.4038	-15.5237	-65.6433	105.5621	45.4700	-60	8	-174	100579	0.62 
300.833	0.9219	-0.1621	0.5620	8.7891	88.2568	-10.5591	-10.3271	-57.2388	100.3986	45.4700	-34	7	-186	100580	0.62 
300.958	0.6289	-0.0615	0.6646	14.7705	83.9844	-29.1138	-4.5044	-48.7134	94.6033	45.4600	0	4	-185	100580	0.62 
301.099	0.4951	0.0059	0.7856	5.2490	87.9517	-21.3623	-0.3406	-39.4629	90.1648	45.4600	31	1	-180	100580	0.62 
301.161	0.4307	0.0488	0.8315	-0.7324	83.8623	-21.6064	1.4612	-30.5859	87.3358	45.4700	66	1	-171	100579	0.62 
301.333	0.3584	0.0542	0.9312	-3.1738	86.8530	-12.8784	2.2247	-21.8628	85.4517	45.4600	97	2	-162	100579	0.62 
301.396	0.2007	0.0488	0.9995	-1.8921	75.3174	-2.4414	2.0874	-13.8428	85.0726	45.4600	120	5	-144	100580	0.62 
301.505	0.0479	0.0464	1.0210	1.4648	70.9839	-2.5024	2.0819	-6.2897	85.0507	45.4300	147	2	-123	100580	0.62 
301.614	-0.1089	0.0718	1.0015	1.4038	57.4341	1.3428	2.2028	0.3131	85.3583	45.4200	168	4	-109	100580	0.62 
301.677	-0.2202	0.0811	0.9937	1.4038	52.1851	8.0566	2.4994	6.0315	85.9735	45.4000	182	6	-92	100580	0.62 
301.771	-0.2749	0.0806	1.0342	3.6621	39.6118	4.6997	2.8729	10.9479	86.9183	45.4200	190	4	-75	100580	0.62 
301.911	-0.3286	0.0845	1.0234	1.1597	9.3384	0.0000	3.1860	13.3813	87.3083	45.4000	199	1	-67	100580	0.62 
301.974	-0.2813	0.0767	0.9932	-1.0986	-3.1128	2.2583	3.1805	13.8373	87.4402	45.4100	202	1	-59	100580	0.62 
302.099	-0.2266	0.0684	1.0010	0.7935	-9.0942	3.7842	3.3124	13.1287	87.8247	45.4000	201	1	-58	100580	0.62 
302.255	-0.1582	0.0806	1.0005	-0.7324	-6.7139	0.1221	3.3563	12.2113	87.9346	45.4100	196	0	-63	100580	0.62 
302.317	-0.1938	0.0752	1.0361	-1.5869	-4.7607	-1.3428	3.2190	11.6235	87.8357	45.4100	192	0	-67	100580	0.62 
302.442	-0.1978	0.0762	0.9971	-2.3804	0.8545	0.6714	3.0981	11.4038	87.9291	45.4100	198	2	-65	100580	0.62 
302.521	-0.2197	0.0664	1.0112	-3.4180	0.9766	-2.7466	2.8070	11.5576	87.8906	45.4200	198	0	-64	100580	0.62 
302.614	-0.2163	0.0425	1.0234	-0.9766	1.6479	-1.4038	2.5269	11.7664	87.6709	45.4300	197	3	-62	100580	0.62 
302.724	-0.2207	0.0508	1.0063	1.0376	-2.0142	2.3193	2.5818	11.7828	87.7533	45.4200	196	2	-63	100580	0.62 
302.833	-0.1812	0.0820	0.9849	-0.5493	-4.6387	3.2349	2.7191	11.5137	88.0884	45.4300	197	0	-66	100580	0.62 
302.911	-0.1875	0.0649	1.0073	-1.4038	-2.7466	0.6714	2.7466	11.2445	88.1653	45.4300	194	1	-69	100581	0.62 
303.021	-0.1953	0.0444	1.0186	-0.3052	-0.8545	0.6714	2.6642	11.1566	88.2037	45.4200	199	1	-64	100581	0.62 
303.099	-0.2026	0.0591	1.0146	1.2207	-0.4883	0.9155	2.7301	11.1182	88.2971	45.4400	196	1	-65	100581	0.62 
303.271	-0.2046	0.0747	1.0112	0.9155	-0.6714	1.0376	2.9333	11.0687	88.4070	45.4400	196	2	-66	100580	0.62 
303.364	-0.2124	0.0693	1.0195	-0.1831	-1.5869	0.4272	3.0377	11.0303	88.4564	45.4300	195	1	-65	100580	0.62 
303.396	-0.1719	0.0640	0.9990	-0.0610	-2.6245	1.1597	3.0652	10.8215	88.5004	45.4500	195	1	-67	100580	0.62 
303.536	-0.1938	0.0669	1.0151	-0.1221	-3.4180	1.3428	3.0817	10.5524	88.5663	45.4400	197	1	-69	100580	0.62 
303.661	-0.1782	0.0645	1.0156	0.3052	-2.4414	1.2817	3.1476	10.2338	88.6267	45.4400	190	4	-70	100580	0.62 
303.724	-0.1821	0.0718	1.0107	0.5493	-0.8545	2.3193	3.2355	10.0415	88.6707	45.4400	193	3	-70	100580	0.62 
303.833	-0.2061	0.0830	1.0361	-0.7324	-6.4087	3.2349	3.3563	9.8163	88.8409	45.4500	193	3	-68	100579	0.62 
303.912	-0.2144	0.0669	1.0342	-2.2583	-16.3574	0.1221	3.2300	8.7341	88.7476	45.4400	193	2	-75	100579	0.62 
304.083	-0.1650	0.0693	1.0190	-1.4038	-27.9541	0.9766	3.0927	6.7236	88.5718	45.4500	189	1	-78	100578	0.62 
304.177	-0.0967	0.0640	1.0278	-2.3804	-40.4053	-2.3804	2.8235	3.2959	88.2697	45.4400	180	3	-90	100578	0.62 
304.208	-0.0386	0.0723	1.0522	-3.4180	-51.6357	2.9907	2.6202	-1.1810	87.8961	45.4400	171	7	-105	100578	0.62 
304.333	0.0332	0.0698	1.0283	-4.7607	-58.7158	8.2397	2.2687	-6.5698	88.1049	45.4500	157	5	-117	100578	0.62