StartTime: 2017-07-14 14:15:41.614
Time(s)	ax(g)	ay(g)	az(g)	wx(deg/s)	wy(deg/s)	wz(deg/s)	AngleX(deg)	AngleY(deg)	AngleZ(deg)	T(°)	hx	hy	hz	Pressure(Pa)	Altitude(m) 
399.176	-0.2139	0.0166	0.9736	-1.6479	1.4648	-0.1831	-0.6207	11.1731	167.7942	44.5400	59	-160	-95	100556	0.64 
399.270	-0.2051	0.0293	1.0044	-1.8311	-0.3052	-2.3193	-0.6757	11.4148	167.7393	44.5500	55	-158	-96	100557	0.64 
399.380	-0.1782	0.0840	0.9834	-11.4136	-3.2349	1.6479	-1.0217	11.1456	167.3712	44.5400	57	-161	-96	100556	0.64 
399.489	-0.1768	0.0132	1.0215	-20.7520	-5.4932	-0.3052	-2.3676	10.7227	167.6184	44.5300	58	-155	-102	100556	0.64 
399.614	-0.1772	0.0371	1.0127	-24.5972	-4.3945	-17.8833	-4.5758	10.0745	166.5363	44.5400	57	-149	-109	100556	0.64 
399.677	-0.1714	0.0381	0.9473	-38.2690	-6.8970	-28.8696	-7.5696	9.2560	164.3665	44.5500	59	-143	-113	100556	0.64 
399.864	-0.1011	0.0220	0.9023	-63.8428	-12.1460	-41.6260	-12.2937	7.5586	161.2134	44.5300	62	-132	-125	100556	0.64 
399.911	-0.1909	-0.0776	0.5171	-70.4956	-2.4414	-41.9922	-18.8965	5.8942	157.7637	44.5000	67	-110	-143	100555	0.64 
399.973	-0.0439	0.0903	0.2026	-67.5659	13.5498	-55.2368	-24.2963	3.9221	151.0236	44.4900	75	-89	-154	100556	0.64 
400.114	0.2207	0.0083	0.4399	-42.6025	11.9629	-9.4604	-30.4486	5.1086	146.8927	44.4700	83	-64	-159	100556	0.64 
400.239	-0.7017	-0.8721	1.7598	-160.1563	-1.2817	-114.8682	-38.9246	2.3950	138.4991	44.4500	95	-47	-159	100556	0.64 
400.302	1.2896	-2.8120	-0.3823	-247.2534	-168.8843	17.8223	-66.5662	-9.3933	143.0200	44.4200	76	24	-165	100557	0.64 
400.473	0.1396	-0.6602	-0.2437	-121.4600	-16.3574	72.8760	-85.1825	-7.5256	149.1779	44.3800	56	87	-148	100558	0.64 
400.567	0.2720	-0.7769	-0.5474	-61.9507	-43.5791	164.2456	-96.4819	4.3231	152.5067	44.3800	70	111	-130	100558	0.64 
400.645	-0.1572	-0.9243	-0.2397	8.4229	18.7378	57.0068	-100.2997	13.2440	150.4358	44.3700	94	113	-114	100559	0.64 
400.755	-0.3604	-0.9346	-0.1953	26.4282	-0.7324	19.3481	-98.8605	15.8148	148.8208	44.3800	109	103	-111	100560	0.64 
400.848	-0.4556	-1.0859	-0.1509	22.5830	2.3193	2.3804	-96.5314	17.6385	148.6011	44.3600	115	92	-115	100561	0.64 
400.943	-0.3022	-0.9009	-0.1206	13.0005	13.0005	-35.2783	-95.4437	15.7764	147.5464	44.3500	117	88	-116	100561	0.64 
401.067	-0.2383	-1.0254	-0.1460	23.0103	5.2490	-64.3921	-94.0814	11.3104	146.7059	44.3700	113	90	-120	100562	0.64 
401.177	0.0039	-0.9575	-0.0659	26.7334	16.1133	-41.8091	-91.8787	5.3613	145.5414	44.3800	101	95	-124	100562	0.64 
401.286	-0.0229	-1.0527	-0.0552	29.3579	-0.0610	-31.9824	-89.7583	1.4612	144.9756	44.3800	95	100	-128	100563	0.64 
401.365	-0.0269	-0.8359	0.2295	47.7905	21.9727	-10.6201	-85.6549	-0.3076	144.4043	44.3800	87	96	-131	100563	0.64 
401.489	0.1387	-1.1118	-0.0693	-20.0806	-30.8228	-17.4561	-85.1221	-2.8564	145.1569	44.3900	85	90	-137	100563	0.64 
401.583	0.1016	-0.9844	-0.0103	-19.4702	-15.4419	2.9297	-86.8030	-3.1476	145.6622	44.3900	76	95	-135	100564	0.64 
401.693	0.0562	-1.0342	0.0112	-3.5400	1.1597	8.7891	-87.9071	-2.4170	146.0522	44.3800	75	97	-134	100563	0.64 
401.817	0.0498	-1.0244	0.0078	0.9766	1.4038	8.7280	-88.1323	-1.6699	146.3104	44.4000	76	99	-135	100564	0.64 
401.895	0.0313	-0.9756	0.0210	-1.0376	-0.4272	7.8125	-88.0829	-0.8789	146.3983	44.3800	79	98	-135	100563	0.64 
402.020	0.0220	-0.9985	0.0044	-1.7700	-2.2583	-0.0610	-88.2806	-0.4340	146.5576	44.4000	81	100	-133	100564	0.64 
402.145	0.0225	-1.0215	-0.0088	0.0610	-0.4272	-2.4414	-88.4729	-0.5933	146.6125	44.4100	81	96	-132	100564	0.64 
402.224	0.0303	-0.9927	0.0225	1.4038	0.5493	-1.0986	-88.4235	-0.8405	146.6071	44.4000	81	97	-131	100564	0.64 
402.334	-0.0020	-1.0269	0.0073	4.9438	-5.6152	-8.8501	-88.2642	-1.2030	146.7609	44.3800	82	98	-133	100564	0.63 
402.427	0.0400	-0.9858	0.0493	6.2866	1.0376	1.1597	-87.5995	-1.7084	146.5192	44.3900	79	97	-133	100564	0.63 
402.552	0.0615	-0.9800	0.0557	-0.9766	-1.4648	0.6714	-87.3578	-1.7743	146.5192	44.3900	80	95	-136	100564	0.64 
402.630	0.0684	-1.0132	0.0264	1.3428	2.5635	0.6104	-87.4786	-1.9116	146.7059	44.4000	78	98	-136	100563	0.64 
402.755	0.0317	-1.0078	0.0376	2.1973	-0.0610	-0.7324	-87.2864	-1.7908	146.5961	44.4300	77	95	-136	100563	0.64 
402.864	0.0508	-0.9790	0.0557	-1.3428	-0.4883	1.5869	-87.1600	-1.9171	146.6125	44.4200	78	96	-132	100564	0.64 
402.989	0.0317	-0.9839	0.0659	-0.9766	0.7324	1.0986	-87.3578	-1.8347	146.6620	44.4300	76	97	-137	100564	0.64 
403.067	0.0781	-0.9907	0.0439	0.8545	0.0000	-3.7842	-87.4072	-2.2083	146.8872	44.4300	77	99	-135	100564	0.64 
403.177	0.0615	-0.9878	0.0410	0.3662	0.4883	0.0610	-87.3358	-2.4500	146.9366	44.4400	76	98	-135	100564	0.64 
403.271	0.0493	-1.0146	0.0483	0.8545	1.4648	-1.5259	-87.3358	-2.5543	146.9476	44.4500	76	98	-136	100564	0.64 
403.381	0.0425	-0.9966	0.0542	1.6479	0.0000	-0.1831	-87.1930	-2.6752	146.9421	44.4600	77	96	-134	100564	0.64