StartTime: 2017-07-11 15:30:57.467
Time(s)	ax(g)	ay(g)	az(g)	wx(deg/s)	wy(deg/s)	wz(deg/s)	AngleX(deg)	AngleY(deg)	AngleZ(deg)	T(°)	hx	hy	hz	Pressure(Pa)	Altitude(m) 
82.269	-1.2012	-0.0908	1.8232	0.4272	3.2959	0.8545	-1.8347	32.9041	177.1326	44.3200	-105	-237	181	100824	0.42 
82.426	-1.2290	-0.0605	1.8491	0.8545	-1.3428	0.6104	-1.8237	33.1073	176.9293	44.3200	-105	-240	180	100824	0.42 
82.473	-1.2271	-0.0464	1.8579	-0.4272	0.7324	2.3804	-1.6205	33.1348	177.1106	44.3300	-105	-235	181	100825	0.42 
82.644	-1.2061	-0.0586	1.8379	-1.0986	-2.2583	11.0474	-1.1261	33.0194	178.1049	44.3300	-108	-236	187	100824	0.42 
82.769	-1.2046	-0.0439	1.8525	-2.5024	-0.3052	12.0850	-0.4834	32.9590	179.4562	44.3400	-109	-236	183	100824	0.42 
82.848	-1.2607	-0.0864	1.8530	-4.8828	5.6152	8.0566	-0.5438	33.4039	-179.8297	44.3300	-109	-236	183	100824	0.42 
83.035	-1.2402	0.0186	1.8154	-8.0566	9.3384	-0.6714	-0.9448	34.3433	-179.9176	44.3500	-112	-233	181	100825	0.42 
83.035	-1.2749	0.0103	1.9302	-13.9160	0.1221	3.1738	-1.9995	34.8871	179.9670	44.3500	-113	-231	179	100825	0.42 
83.194	-1.2710	-0.0190	1.8569	-16.6626	-6.1646	-1.5259	-3.4607	34.2993	179.9451	44.3600	-114	-226	171	100824	0.42 
83.272	-1.2573	-0.0571	1.8252	-18.0054	-13.1226	-6.0425	-5.2130	33.2117	179.4891	44.3400	-113	-221	168	100824	0.42 
83.350	-1.2627	-0.0698	1.8174	-21.6675	-13.8550	-12.3901	-7.4268	31.9592	178.4674	44.3700	-115	-218	165	100824	0.42 
83.475	-1.2100	-0.1411	1.6831	-23.4985	-12.8784	-22.1558	-10.0690	30.4651	176.9513	44.3600	-118	-213	162	100825	0.42 
83.600	-1.2476	0.0229	1.6538	-28.5645	-13.0615	-17.7612	-13.2385	29.2950	174.7046	44.3400	-122	-205	162	100824	0.42 
83.663	-1.1362	-0.0825	1.2817	-35.2173	-7.8125	-6.9580	-15.8643	28.6304	174.1882	44.3600	-120	-198	155	100824	0.42 
83.788	-1.1572	-0.1611	1.0913	-27.7710	19.9585	-19.4702	-19.0338	30.1410	172.6447	44.3500	-123	-186	146	100824	0.42 
83.866	-1.0391	-1.1563	1.8237	-30.6396	43.3350	-116.1499	-26.0815	33.8049	165.4816	44.3500	-105	-185	138	100824	0.42 
84.038	-0.6494	-1.6797	6.4873	-125.1831	-134.9487	-358.9478	-41.3196	11.5082	144.5361	44.3200	-88	-174	126	100825	0.42 
84.210	0.1709	-1.0522	0.3823	5.2490	-157.5317	-10.4370	-46.3019	-11.0577	152.5836	44.3000	-138	-148	126	100826	0.42 
84.241	-0.1475	0.0464	1.2495	-36.1938	-216.6138	-110.1685	-49.7681	-26.7023	161.7352	44.2700	-194	-150	143	100827	0.42 
84.272	0.0283	-0.2305	0.0576	-8.9111	-19.0430	-23.0103	-61.7157	-39.2596	-176.5942	44.2500	-253	-148	189	100827	0.42 
84.444	-0.0254	-0.6289	0.6191	5.9814	13.0615	-9.0942	-57.8705	-36.4691	-176.6107	44.2300	-264	-156	208	100827	0.42 
84.569	-0.1289	-0.1348	0.9834	6.2866	38.2690	-5.2490	-52.0917	-32.9370	-178.6707	44.2000	-260	-167	201	100827	0.41 
84.616	-0.3276	-0.4409	1.1392	15.2588	75.6836	-10.8643	-47.0984	-26.7407	179.1156	44.2000	-245	-172	188	100828	0.41 
84.679	-0.3252	-0.4277	1.3213	-0.9766	-14.0381	4.4556	-43.4949	-20.7532	178.8739	44.2300	-226	-176	175	100828	0.41 
84.882	-0.2148	-0.3237	1.2329	0.9766	-19.5923	2.3193	-43.0774	-18.7372	-176.4459	44.2300	-225	-176	173	100829	0.41 
85.007	-0.1011	-0.4243	1.1235	-11.6577	-9.6436	8.9111	-43.7915	-17.9132	-171.9196	44.2200	-228	-172	175	100829	0.41 
85.054	-0.0908	-0.4058	1.1099	-3.8452	1.8921	-4.5776	-44.1321	-16.3751	-168.7665	44.2000	-234	-172	178	100829	0.41 
85.101	-0.1201	-0.3521	1.1929	3.1128	0.7935	-8.1787	-43.0499	-14.9414	-166.6956	44.2100	-230	-169	177	100829	0.41 
85.304	-0.0957	-0.3115	1.1689	0.2441	-1.4648	-4.6997	-41.6821	-13.6670	-164.4434	44.2200	-233	-169	181	100829	0.41 
85.382	-0.1196	-0.3604	1.1704	0.2441	-1.8311	-1.6479	-40.6769	-12.3376	-162.1692	44.2100	-232	-174	178	100829	0.41 
85.492	-0.0889	-0.3228	1.1514	3.2959	-1.7090	1.0376	-39.5013	-11.1456	-159.6698	44.2200	-232	-177	177	100830	0.41 
85.601	-0.1069	-0.3496	1.1924	1.5259	0.8545	-0.7935	-38.2983	-9.6899	-157.4286	44.2000	-234	-172	182	100829	0.41 
85.695	-0.0977	-0.3462	1.1650	-0.4883	-0.6714	0.2441	-37.3041	-8.5693	-155.3357	44.1900	-233	-176	180	100829	0.41 
85.835	-0.1006	-0.3354	1.1646	-0.6714	-0.7935	-1.1597	-36.4087	-7.6025	-153.4351	44.2100	-233	-174	182	100830	0.41 
85.913	-0.0986	-0.3335	1.1665	-0.0610	-0.7935	-0.2441	-35.4694	-6.7126	-151.6223	44.2000	-232	-178	182	100830	0.41 
86.023	-0.0972	-0.3418	1.1694	0.2441	0.5493	0.0610	-34.5575	-5.7788	-149.8041	44.2200	-231	-170	181	100830	0.41 
86.101	-0.0991	-0.3418	1.1689	-0.1221	-0.3662	-0.4883	-33.6676	-4.9274	-148.0792	44.2300	-234	-174	180	100830	0.41 
86.288