StartTime: 2017-07-06 16:11:41.517
Time(s)	ax(g)	ay(g)	az(g)	wx(deg/s)	wy(deg/s)	wz(deg/s)	AngleX(deg)	AngleY(deg)	AngleZ(deg)	T(°)	hx	hy	hz 
6.141	-0.2578	0.0771	0.9614	-0.3052	-0.4272	0.3052	4.0320	14.5294	-143.8989	44.7100	-184	-224	76 
6.298	-0.2583	0.0752	0.9614	-0.5493	-0.9155	0.7324	4.0265	14.4965	-143.8879	44.7200	-183	-226	80 
6.329	-0.2617	0.0742	0.9634	-0.4272	0.1221	0.3662	4.0155	14.4745	-143.8715	44.7400	-186	-226	76 
6.454	-0.2573	0.0654	0.9639	-0.1831	-0.7935	0.1221	3.9825	14.4525	-143.9429	44.7100	-182	-226	77 
6.532	-0.2554	0.0674	0.9688	-0.1831	-0.4272	-1.7700	3.9661	14.4360	-144.0308	44.7300	-187	-229	77 
6.689	-0.2568	0.0840	0.9736	-0.8545	-1.0986	-1.0376	3.9166	14.3756	-144.2725	44.7500	-184	-225	79 
6.767	-0.2539	0.0713	0.9600	-0.4883	-0.7324	-0.2441	3.8672	14.3042	-144.3384	44.7500	-186	-223	81 
6.892	-0.2671	0.0664	0.9448	1.2207	3.3569	2.5024	3.8727	14.3536	-144.3384	44.7700	-187	-225	79 
6.954	-0.2939	0.1655	0.9180	2.3804	13.8550	8.8501	4.3011	15.1117	-143.9978	44.7700	-185	-227	78 
7.095	-0.2598	0.1665	0.7295	-6.6528	14.8315	13.8550	5.3284	17.0508	-142.2510	44.7700	-181	-228	80 
7.142	-0.1689	0.1147	1.1162	-14.7095	20.5688	-15.2588	4.3945	18.5614	-142.2235	44.7900	-178	-224	75 
7.296	-0.2231	0.1392	0.8906	-12.9395	18.4937	-22.6440	2.6587	19.9786	-144.1241	44.7800	-169	-225	69 
7.343	-0.3042	0.2969	0.8872	-23.2544	18.9209	-30.0293	0.4010	21.6815	-147.4200	44.7600	-159	-220	66 
7.475	-0.2808	0.0405	0.8027	-36.9873	25.4517	-20.2637	-2.4664	23.0328	-149.2657	44.7700	-155	-214	60 
7.528	-0.2837	0.0742	0.7007	-33.7524	14.8926	-48.8281	-6.9379	24.6478	-153.3582	44.7600	-141	-207	53 
7.696	-0.3057	-0.2422	0.4629	-26.0010	7.5073	-98.0835	-13.0737	24.2798	-160.5981	44.7400	-131	-202	47 
7.728	-0.2388	0.1333	0.4526	-17.3950	-9.3384	-109.1309	-19.7919	21.4343	-172.6227	44.7300	-118	-202	45 
7.896	-0.4106	-1.1816	0.5396	-79.1016	-33.2642	-152.8931	-26.4221	16.1060	179.8022	44.7400	-115	-194	40 
7.928	-0.6060	-0.6724	3.6802	-217.6514	24.0479	-67.4438	-46.9226	3.6804	168.1677	44.7100	-112	-167	26 
8.113	-0.6060	-0.6724	3.6802	-217.6514	24.0479	-67.4438	-67.0605	-15.2930	175.9241	44.6800	-145	-102	38 
8.144	0.2021	-1.2021	-0.2529	-140.8081	-97.7173	77.3926	-86.7920	-14.6722	-174.8364	44.6500	-177	-42	75 
8.328	0.2427	-0.4077	-0.0649	-17.6392	-17.1509	-14.3433	-91.2195	-14.7052	-165.5145	44.6400	-182	-9	100 
8.360	0.1245	-1.0112	-0.4917	24.9023	-7.3853	11.3525	-93.0487	-16.5784	-159.6313	44.6400	-187	-6	109 
8.428	0.3403	-1.5322	0.0513	77.8198	-6.7749	-18.9209	-86.9568	-17.9956	-155.1874	44.6200	-191	-19	104 
8.559	0.7744	-0.7407	0.7139	35.3394	53.4668	78.8574	-79.1345	-18.7921	-153.1989	44.6000	-193	-41	85 
8.613	0.5283	-0.9351	0.2632	17.4561	21.5454	-31.3721	-77.6624	-19.7589	-149.8700	44.6100	-192	-53	76 
8.760	0.4541	-0.8848	0.1826	-6.3477	12.2681	-34.7900	-76.6187	-23.7469	-147.3486	44.6000	-188	-60	74 
8.845	0.3511	-0.8989	0.2354	-1.7090	-0.1831	-19.3481	-76.3055	-25.6421	-144.8877	44.6000	-198	-66	71 
8.976	0.3594	-0.8813	0.1514	5.0659	-2.1362	12.7563	-76.4484	-26.2793	-140.8008	44.6000	-198	-68	70 
9.014	0.4048	-0.9365	0.1216	2.9297	-2.9907	-6.8970	-76.3660	-25.9277	-136.9775	44.5900	-200	-72	67 
9.145	0.3696	-0.9580	0.1841	4.7607	1.0986	-30.4565	-75.9265	-27.3340	-134.2419	44.5800	-203	-76	71 
9.230	0.4873	-0.7246	0.1299	7.0190	3.2959	-15.6250	-74.8663	-30.4596	-132.2754	44.5900	-207	-81	71 
9.392	0.4380	-0.8076	0.2397	16.8457	11.0474	10.8032	-72.9327	-30.7617	-130.5231	44.5900	-210	-89	69 
9.445	0.3999	-0.9272	0.2515	13.0005	10.9863	-3.1738	-71.5155	-30.0256	-128.3313	44.5900	-203	-98	67 
9.592	0.5186	-0.7871	0.3433	-3.2349	-6.4697	-7.5073	-70.4004	-29.8828	-126.9031	44.6000	-195	-100	61 
9.630	0.4365	-0.8364	0.2788	-5.7983	-15.0146	-3.6621	-70.8289	-30.5640	-123.9642	44.5700	-202	-99	61 
9.776	0.4521	-0.8130	0.1860	-7.0190	-3.6011	-3.1128	-71.9604	-30.1410	-121.1243	44.5700	-204	-98	63 
9.861	0.5024	-0.8394	0.2974	2.1973	4.3945	-1.7700	-71.7352	-30.3387	-119.6411	44.5700	-200	-98	64 
9.994	0.4556	-0.8423	0.2471	-1.1597	-5.7373	11.2305	-72.0374	-29.8608	-116.8286	44.5800	-200	-96	62 
10.061	0.4224	-0.8882	0.3218	-1.4038	5.7373	8.7891	-72.3999	-28.4436	-114.4611	44.5800	-204	-95	65 
10.177	0.4458	-0.8379	0.2305	-5.0049	-7.6904	4.0283	-73.0206	-28.0151	-111.9891	44.5700	-199	-94	64 
10.276	0.4800	-0.8574	0.2334	-3.2959	-4.3945	-7.5073	-73.4326	-28.2184	-109.9677	44.5900	-204	-90	61 
10.345	0.4648	-0.8452	0.2607	1.6479	3.8452	-10.2539	-73.3777	-28.9984	-108.7866	44.5900	-200	-92	67 
10.430	0.5083	-0.8540	0.2700	2.6855	2.2583	-5.7983	-72.8668	-29.5642	-107.8418	44.6000	-201	-95	62 
10.598	0.4854	-0.8110	0.2617	1.0986	-2.1973	0.3052	-72.4438	-29.6136	-106.6553	44.5900	-204	-97	62 
10.630	0.4604	-0.8345	0.3242	0.0000	2.3804	3.8452	-72.1857	-29.5697	-105.4742	44.5800	-201	-99	60 
10.799	0.4917	-0.8301	0.2461	-2.0142	1.4648	6.1035	-72.4768	-29.2950	-103.9252	44.6000	-199	-95	64 
10.830	0.4531	-0.8403	0.2856	-2.3193	-2.0752	1.7090	-72.6416	-28.7128	-102.6233	44.5900	-201	-98	64 
10.999	0.4697	-0.8530	0.2573	-3.2349	-5.7983	10.1318	-73.2733	-28.0920	-100.6897	44.5900	-200	-92	64 
11.046	0.4512	-0.8657	0.2222	-1.4038	-3.5400	0.0000	-73.8831	-27.5977	-98.7341	44.5900	-201	-93	66 
11.099	0.4546	-0.8496	0.2637	1.4038	1.7090	-0.3052	-73.7128	-27.1912	-97.8552	44.5700	-197	-90	67 
11.231	0.4756	-0.8481	0.2827	3.8452	4.8828	0.0000	-73.2898	-27.3779	-97.1631	44.5800	-199	-93	64 
11.315	0.4297	-0.8301	0.2959	0.0000	0.9155	2.4414	-72.9547	-27.1857	-96.4160	44.5600	-201	-93	65 
11.477	0.4634	-0.8530	0.2720	0.3662	2.1973	-2.1973	-72.8998	-27.3724	-95.6689	44.5500	-197	-94	65 
11.517	0.4448	-0.8613	0.2690	-0.1221	-1.7090	4.3335	-72.9712	-27.0483	-94.6637	44.5400	-200	-95	62 
11.648	0.4648	-0.8296	0.2700	0.6714	-1.5869	0.7935	-72.9987	-26.8176	-93.6639	44.5600	-200	-93	66 
11.717	0.4551	-0.8306	0.2729	-2.7466	-0.8545	5.1880	-73.0426	-26.5375	-92.8510	44.5300	-200	-92	63 
11.864	0.4268	-0.8662	0.2725	-2.8076	2.3193	8.3008	-73.3502	-26.0980	-92.1259	44.5100	-200	-94	65 
11.901	0.4590	-0.8540	0.2432	-2.6855	-1.0986	2.6245	-73.7897	-25.6476	-91.1920	44.5300	-202	-91	64 
12.064	0.4116	-0.9063	0.2646	-0.3052	2.6855	7.7515	-73.9160	-25.1147	-90.5438	44.5100	-197	-88	63 
12.117	0.4292	-0.8857	0.2920	1.2207	6.4697	2.3804	-73.7677	-24.2743	-90.1648	44.5400	-196	-89	63 
12.264	0.4048	-0.8843	0.2637	-5.4321	3.1128	2.9907	-73.7238	-23.8623	-89.9231	44.5300	-195	-87	64 
12.301	0.3872	-0.9512	0.3257	9.0332	33.8745	-60.5469	-73.1635	-24.9390	-91.1096	44.5500	-195	-87	64 
12.496	0.4673	-0.7725	0.3359	4.6997	6.2866	-24.6582	-71.5814	-27.0758	-92.6038	44.5300	-202	-94	58 
12.633	0.4634	-0.7769	0.3301	7.9956	-12.2681	-11.5967	-71.1749	-28.2623	-91.3568	44.5500	-198	-99	56 
12.696	0.5132	-0.7598	0.2935	0.4272	-10.4370	-18.1274	-71.2573	-30.4926	-89.9176	44.5400	-201	-105	60 
12.718	0.5869	-0.7300	0.2832	6.1646	-2.5024	-28.5034	-70.6201	-33.0359	-90.1318	44.5400	-202	-111	60 
12.849	0.5737	-0.7168	0.3530	4.4556	5.7983	-9.1553	-69.2578	-34.7772	-91.1096	44.5300	-206	-122	62 
13.034	0.5825	-0.7139	0.3311	0.0000	-2.5024	4.8218	-68.5547	-35.2826	-91.3788	44.5200	-208	-122	66 
13.065	0.5415	-0.8120	0.3428	-3.7231	-0.8545	10.6201	-68.9996	-34.6344	-90.5273	44.5100	-212	-121	65 
13.118	0.5610	-0.8086	0.2886	-2.9907	4.8828	6.4087	-69.7906	-34.2554	-89.6320	44.5100	-212	-121	69 
13.265	0.5977	-0.7744	0.2998	-2.6855	-5.0049	7.5073	-70.0928	-33.6896	-89.0771	44.5100	-210	-118	65 
13.334	0.5508	-0.7744	0.2310	-1.3428	2.2583	8.5449	-70.7355	-33.2501	-88.2147	44.4900	-210	-115	66 
13.466	0.5439	-0.7998	0.2974	1.0986	5.1880	0.7935	-70.4004	-32.7063	-88.4839	44.4900	-209	-113	66 
13.550	0.5361	-0.7769	0.2988	-0.0610	-1.5259	4.1504	-70.1697	-32.5250	-88.3850	44.5000	-208	-113	65 
13.666	0.5513	-0.7744	0.2944	-1.0376	0.7324	0.8545	-70.2576	-32.2504	-87.9730	44.4900	-204	-114	63 
13.719	0.5371	-0.7930	0.3228	-1.2207	1.7090	0.9155	-70.4938	-31.9702	-87.5281	44.5000	-206	-114	66 
13.850	0.5767	-0.8286	0.2861	-2.3193	0.5493	2.2583	-70.6970	-32.2229	-87.1655	44.5100	-207	-112	68 
13.950	0.5186	-0.8179	0.3203	0.3662	-2.5635	7.2021	-70.8398	-31.7395	-86.7261	44.5100	-208	-111	71 
14.050	0.5234	-0.7998	0.2749	-0.6104	0.8545	4.3945	-71.1969	-31.3385	-85.8911	44.5000	-205	-109	69 
14.120	0.5400	-0.7910	0.2822	-1.9531	-1.3428	1.9531	-71.3232	-31.1957	-85.6879	44.5200	-212	-110	70 
14.299	0.5352	-0.7983	0.2686	0.3662	-0.4883	1.5259	-71.4935	-31.2122	-85.3088	44.5300	-206	-110	69 
14.335	0.5337	-0.8096	0.2612	-0.7324	-1.5869	1.7700	-71.5045	-30.9760	-85.0067	44.5300	-206	-110	69 
14.466	0.4927	-0.8086	0.3398	-2.3193	-4.3335	4.0894	-71.4386	-30.8276	-84.8364	44.5400	-208	-107	73 
14.536	0.5259	-0.7964	0.2646	-2.2583	-3.9673	-0.9155	-72.0428	-31.0638	-84.0454	44.5400	-209	-108	75 
14.698	0.5112	-0.8247	0.2974	-0.1831	-2.8076	6.2866	-72.2186	-31.0803	-83.6829	44.5400	-214	-108	68 
14.751 
15.105	0.5190	-0.8330	0.2793	-0.1831	-2.8076	6.2866	-73.5590	-29.8224	-80.8594	44.5700	-208	-105	85 
15.293	0.5190	-0.8330	0.2793	-0.1831	-2.8076	6.2866	-73.1085	-30.0696	-81.2000	44.5800	-203	-102	83 
15.324	0.5190	-0.8330	0.2793	0.0610	2.6855	-3.1738	-72.9492	-30.1300	-81.2329	44.5900	-199	-103	83 
15.496	0.5107	-0.8213	0.2622	0.3052	3.5400	1.3428	-72.8613	-30.2783	-81.0736	44.5900	-205	-106	84 
15.683	0.5244	-0.8125	0.2788	-0.2441	0.3662	0.0610	-72.4988	-30.0641	-81.3867	44.5900	-204	-103	84 
15.715	0.5005	-0.8257	0.2808	-0.6104	1.2207	1.2817	-72.4493	-29.8169	-81.3043	44.5900	-203	-104	83 
15.918	0.5054	-0.8125	0.2832	0.3662	0.7935	0.6714	-72.3889	-29.7675	-81.2823	44.6000	-206	-102	79 
15.949	0.5039	-0.8110	0.2759	-0.1831	-0.4883	1.2207	-72.3615	-29.7675	-81.1230	44.6000	-208	-103	76 
15.996	0.5166	-0.8311	0.2817	-0.3662	0.9155	2.5024	-72.4384	-29.6136	-80.8868	44.6100	-205	-104	81 
16.152	0.5137	-0.8164	0.2822	-0.7324	0.9155	-1.3428	-72.3779	-29.6686	-80.9473	44.6200	-204	-106	80 
16.277	0.5093	-0.8179	0.2627	-0.6104	0.1831	1.9531	-72.4603	-29.5807	-80.7715	44.6300	-203	-101	84 
16.324	0.5122	-0.8203	0.2598	0.3052	0.7324	2.7466	-72.4054	-29.3884	-80.6506	44.6200	-203	-103	80 
16.512	0.5068	-0.8291	0.2700	0.0610	0.4883	3.6011	-72.3175	-28.9270	-80.5518	44.6100	-204	-104	85 
16.543	0.4966	-0.8223	0.2827	-1.5259	-0.3662	3.0518	-72.3065	-28.5809	-80.4364	44.6400	-202	-100	81 
16.730	0.4849	-0.8506	0.2666	-0.2441	0.6714	-0.4883	-72.4823	-28.6523	-80.2936	44.6300	-204	-103	79 
16.809	0.5010	-0.8345	0.2632	-1.0376	-2.0752	-0.6104	-72.5592	-28.5645	-80.0299	44.6300	-204	-99	81 
16.918	0.4878	-0.8291	0.2925	1.5259	1.8311	2.3804	-72.4768	-28.5370	-80.0134	44.6300	-202	-101	81 
16.934	0.5000	-0.8486	0.2720	-0.4883	0.4272	1.8311	-72.3615	-28.3997	-79.9640	44.6200	-205	-100	84 
17.012	0.4775	-0.8301	0.2930	-0.7935	-0.1831	1.5259	-72.1582	-28.1360	-80.2112	44.6400	-198	-99	79 
17.168	0.4692	-0.8340	0.2871	-1.3428	-3.1128	0.9766	-72.2955	-28.0536	-79.9640	44.6600	-200	-100	78 
17.199	0.5000	-0.8184	0.2720	-0.9155	2.3193	-1.8311	-72.4274	-28.2788	-79.8322	44.6400	-202	-100	81 
17.387	0.4897	-0.8447	0.2925	-0.7935	1.2817	0.8545	-72.3560	-28.2733	-80.0299	44.6400	-200	-100	77 
17.418	0.4790	-0.8335	0.2783	-1.3428	-4.6997	1.7090	-72.3779	-28.0756	-79.9036	44.6600	-199	-99	78 
17.574	0.4956	-0.8394	0.2563	-3.0518	-6.6528	-1.5869	-72.6141	-28.2294	-79.6344	44.6500	-198	-99	78 
17.590