10 times
StartTime: 2017-07-06 16:14:19.405
Time(s)	ax(g)	ay(g)	az(g)	wx(deg/s)	wy(deg/s)	wz(deg/s)	AngleX(deg)	AngleY(deg)	AngleZ(deg)	T(°)	hx	hy	hz 
1.250	-0.0464	0.0254	1.0054	-0.3052	0.0610	1.2817	-0.0989	2.4500	-112.3627	39.6900	-224	-97	113 
1.313	-0.0420	0.0112	1.0024	-2.1362	0.4883	1.4038	-0.1263	2.4335	-112.3077	39.7000	-226	-95	111 
1.313	-0.0605	-0.0117	1.0020	-2.0752	0.7324	1.5259	-0.3571	2.5488	-112.2748	39.7400	-224	-100	111 
1.469	-0.0459	-0.0073	1.0044	-1.2817	-0.1221	-0.4883	-0.5109	2.5323	-112.3022	39.7200	-225	-96	113 
1.578	-0.0635	0.0347	1.0020	-1.3428	-0.2441	-0.7324	-0.5878	2.4994	-112.4725	39.7200	-225	-96	114 
1.610	-0.0410	-0.0039	1.0024	-3.0518	-2.4414	0.6714	-0.6812	2.2247	-112.4670	39.7400	-226	-97	113 
1.703	-0.0396	-0.0190	1.0005	-2.3804	-1.2817	0.6104	-0.9503	2.0599	-112.4945	39.7400	-228	-96	114 
1.735	-0.0303	-0.0161	0.9922	-0.9155	1.7700	-0.4272	-1.0876	2.0215	-112.4561	39.7500	-227	-96	114 
1.875	-0.0586	0.0000	1.0122	-0.1221	3.4180	-1.4648	-1.1151	2.3236	-112.5879	39.7800	-228	-94	113 
1.953	-0.0381	-0.0034	1.0127	-0.5493	-0.7324	-0.4272	-1.0547	2.5433	-112.7362	39.8000	-225	-97	111 
2.110	-0.0376	-0.0107	0.9922	-1.0376	-3.3569	1.0376	-1.1810	2.2961	-112.7307	39.7800	-226	-93	111 
2.141	-0.0420	0.0063	0.9985	-0.1221	-1.0376	2.5024	-1.0712	2.1753	-112.5659	39.7900	-230	-98	114 
2.297	-0.0430	-0.0142	1.0073	-0.4272	-1.3428	1.5259	-1.0602	2.1313	-112.4286	39.8300	-228	-96	113 
2.360	-0.0313	-0.0239	1.0020	-0.5493	-1.2817	0.3052	-1.1481	1.9501	-112.3792	39.8300	-227	-96	115 
2.500	-0.0356	-0.0103	1.0034	1.0986	0.4272	-0.3052	-1.0986	1.9281	-112.4011	39.8400	-229	-95	115 
2.547	-0.0376	0.0073	1.0010	1.2817	-0.2441	0.3662	-0.9283	1.9501	-112.4011	39.8500	-229	-94	114 
2.759	-0.0356	0.0044	1.0010	0.5493	0.4883	1.2207	-0.7690	1.9611	-112.3901	39.8600	-230	-97	112 
2.806	-0.0356	-0.0020	1.0010	0.0610	0.7935	1.3428	-0.6866	2.0050	-112.3022	39.8900	-228	-95	112 
2.931	-0.0430	-0.0020	1.0029	-0.3662	0.3662	0.9766	-0.6647	2.0984	-112.2473	39.9200	-228	-96	115 
2.977	-0.0337	-0.0015	1.0024	-0.6714	0.3662	0.4883	-0.6812	2.1259	-112.2583	39.9100	-227	-98	111 
3.165	-0.0400	-0.0029	1.0005	-0.3662	0.3662	0.6104	-0.7031	2.1588	-112.2583	39.9200	-227	-97	113 
3.321	-0.0430	-0.0024	1.0029	-0.3052	0.3052	0.7324	-0.6921	2.2192	-112.2418	39.9200	-227	-94	115 
3.352	-0.0415	-0.0010	1.0029	-0.2441	0.5493	0.8545	-0.6702	2.2742	-112.2144	39.9300	-229	-94	115 
3.352	-0.0454	-0.0020	1.0044	-0.2441	0.8545	0.8545	-0.6592	2.3566	-112.1704	39.9400	-226	-96	111 
3.556	-0.0454	0.0005	1.0015	-0.3052	0.6714	0.7324	-0.6482	2.4335	-112.1539	39.9700	-228	-97	114 
3.587	-0.0479	0.0054	0.9990	-0.4272	0.0000	1.2207	-0.6372	2.4829	-112.1210	39.9700	-230	-95	111 
3.774	-0.0464	0.0034	1.0034	-0.4883	0.9766	0.4883	-0.6702	2.5488	-112.1045	39.9800	-226	-100	110 
3.790	-0.0547	-0.0024	0.9956	-0.6714	0.6714	0.6714	-0.6921	2.5928	-112.1265	40.0000	-230	-95	110 
3.962	-0.0508	-0.0029	0.9995	-0.7324	0.0000	0.8545	-0.7306	2.6257	-112.1429	40.0100	-226	-96	113 
3.993	-0.0488	-0.0039	1.0034	-0.6104	-0.2441	0.4883	-0.7690	2.6093	-112.1649	40.0200	-225	-95	111 
4.181	-0.0464	-0.0024	1.0010	-0.3662	-0.4883	0.6714	-0.7800	2.5653	-112.1649	40.0100	-225	-93	113 
4.259	-0.0464	-0.0015	1.0015	-0.4883	-0.4883	0.6104	-0.7800	2.5159	-112.1594	40.0400	-227	-97	110 
4.618	-0.0444	-0.0049	1.0010	-0.2441	-0.3662	0.3662	-0.7745	2.4829	-112.1924	40.0500	-226	-97	113 
4.618	-0.0425	-0.0029	1.0005	0.0000	0.9155	0.9155	-0.7581	2.4939	-112.1979	40.0500	-226	-98	113 
4.618	-0.0562	-0.0073	1.0015	-0.1831	1.1597	1.0376	-0.7416	2.6093	-112.2034	40.0600	-225	-98	110 
4.665	-0.0493	0.0049	0.9941	-0.0610	-0.9155	0.3052	-0.6976	2.6147	-112.2198	40.0900	-228	-97	113 
4.745	-0.0498	0.0005	1.0005	-0.4883	-0.1831	0.4272	-0.6921	2.5543	-112.2858	40.0900	-231	-96	111 
4.776	-0.0503	-0.0039	1.0078	-0.3052	-0.4883	0.9155	-0.7031	2.5159	-112.2858	40.1100	-227	-97	113 
4.839	-0.0332	0.0005	1.0000	-1.2207	0.0610	0.8545	-0.7251	2.3895	-112.2858	40.1200	-226	-98	114 
4.964	-0.0508	-0.0073	1.0020	-1.1597	-0.7935	0.4272	-0.8130	2.3730	-112.2693	40.1300	-228	-98	113 
5.026	-0.0381	-0.0068	1.0015	-1.5259	-2.1973	0.1221	-0.8954	2.2522	-112.3297	40.1400	-224	-97	114 
5.245	-0.0459	0.0005	1.0215	-2.6855	-2.1362	0.8545	-0.9723	2.0819	-112.3242	40.1600	-225	-94	113 
5.448	-0.0576	0.0122	1.0142	-6.4087	-12.7563	0.1831	-1.4172	1.4337	-112.4725	40.1600	-222	-96	113 
5.510	-0.0503	-0.0337	1.0249	-9.3384	-23.8647	2.7466	-2.0599	-0.1923	-112.1539	40.1600	-233	-93	119 
5.651	0.0010	-0.0161	1.0371	-11.2305	-34.0576	0.3052	-3.0432	-2.8235	-111.9232	40.1800	-235	-90	125 
5.698	0.1079	-0.0532	0.9790	-11.2305	-43.9453	4.3945	-4.1803	-6.8774	-111.3245	40.2100	-241	-90	136 
5.792	0.1211	-0.0645	1.0249	-13.2446	-53.4058	3.2349	-5.4437	-11.3324	-110.2094	40.1900	-244	-87	148 
5.839	0.2363	-0.1016	0.9243	-19.7754	-64.6362	4.7607	-7.2345	-17.1661	-108.9349	40.2200	-251	-85	168 
5.839	0.2686	-0.1963	0.9331	-25.6348	-78.9185	4.9438	-9.9866	-23.6810	-106.9849	40.2000	-255	-80	191 
6.198	0.4551	-0.2432	0.8315	-24.2920	-82.7026	5.7983	-13.5626	-31.2012	-104.0240	40.2100	-252	-79	216 
6.198	0.5562	-0.2183	0.7275	-25.1465	-88.8062	1.2207	-17.7045	-39.1882	-100.3491	40.2100	-251	-80	246 
6.245	0.7114	-0.3135	0.5645	-26.9165	-110.2905	-9.4604	-23.4174	-48.1366	-95.2515	40.2200	-243	-89	277 
6.245	0.9229	-0.2671	0.2837	-18.3105	-103.2715	-20.3247	-30.9210	-58.9197	-88.5773	40.2200	-226	-99	315 
6.464	1.0151	-0.2173	0.0801	-3.2349	-65.6128	-20.3857	-39.7980	-67.8516	-79.6454	40.2200	-208	-111	343 
6.464	1.0132	-0.2866	0.1108	-0.5493	-26.9775	-21.2402	-46.9940	-72.5977	-72.1637	40.2200	-193	-121	359 
6.651	0.9746	-0.1206	0.1455	-1.3428	-5.1270	5.9204	-52.9321	-73.4985	-64.0668	40.2500	-181	-122	367 
6.839	0.9658	0.0054	0.1104	6.2866	11.8408	15.0757	-53.4979	-72.9492	-62.6495	40.2500	-182	-119	371 
6.901	0.9541	-0.2881	0.1978	-3.9673	8.3618	-0.1221	-54.6570	-71.6089	-61.4410	40.2500	-184	-114	368 
6.995	0.9209	-0.3296	0.2368	-1.7090	12.7563	12.3291	-52.2345	-70.7245	-63.9185	40.2600	-182	-114	366 
7.042	0.9233	-0.3198	0.2700	1.3428	-0.7935	5.4321	-52.8717	-69.1864	-62.7374	40.2600	-185	-113	363 
7.073	0.9185	-0.2817	0.2466	1.0376	-2.9297	-2.8076	-53.0200	-69.1260	-62.2211	40.2700	-180	-110	364 
7.183	0.9663	-0.2544	0.1934	-0.9766	-1.4648	0.6104	-53.1683	-69.5270	-61.6827	40.2700	-182	-113	362 
7.261	0.9497	-0.2588	0.1978	-1.6479	3.3569	1.0986	-53.3167	-69.4446	-61.3696	40.2600	-181	-110	365 
7.448	0.9258	-0.2544	0.2363	-2.0142	1.4038	1.0376	-52.6465	-69.3567	-62.0013	40.2900	-183	-112	364 
7.620	0.9316	-0.2700	0.2451	-0.3662	-2.3804	-0.0610	-52.7563	-69.2963	-61.7487	40.3000	-183	-113	363 
7.683	0.9453	-0.2705	0.2246	-0.7935	-2.1973	-0.3052	-53.2233	-69.4281	-61.0620	40.3000	-181	-110	360 
7.776	0.9487	-0.2593	0.2109	-0.4883	-2.2583	-0.5493	-53.5034	-69.6204	-60.6061	40.3000	-179	-115	363 
7.808	0.9473	-0.2637	0.2168	-0.6714	-0.2441	0.9766	-53.6572	-69.7247	-60.2600	40.3100	-183	-113	367 
7.839	0.9463	-0.2637	0.2168	-0.4883	-0.4883	0.2441	-53.7231	-69.7632	-60.0513	40.3200	-180	-111	365 
8.058	0.9473	-0.2627	0.2153	-1.2207	-2.7466	-0.7935	-53.8824	-69.8181	-59.7491	40.3300	-183	-113	367 
8.089	0.9507	-0.2573	0.2002	-0.8545	-1.8921	0.0610	-54.2285	-70.0269	-59.2932	40.3600	-180	-116	365 
8.214	0.9580	-0.2710	0.2061	-0.1831	1.1597	-1.2817	-54.2670	-70.1093	-59.1504	40.3600	-181	-115	370 
8.261	0.9565	-0.2651	0.2095	-0.5493	2.5635	-3.3569	-53.5474	-70.1807	-59.7931	40.3600	-183	-118	368 
8.448	0.9561	-0.2480	0.2236	-1.5259	1.4038	-3.2349	-52.0148	-70.3070	-61.3916	40.3900	-182	-117	368 
8.480	0.9780	-0.2461	0.2354	-0.9766	7.0190	-1.4648	-50.7458	-70.3290	-62.6715	40.3900	-182	-117	361 
8.651	0.9683	-0.2017	0.2139	-1.7090	11.9019	-14.9536	-46.8127	-70.4883	-66.8243	40.3900	-183	-117	365 
8.683	0.8452	-0.2490	0.2539	-1.9531	-9.9487	-18.5547	-42.4127	-70.9497	-71.4001	40.4100	-190	-121	364 
8.808	0.9741	-0.2354	0.1704	8.6670	-8.9722	2.2583	-41.9183	-72.1967	-71.3397	40.4300	-188	-125	361 
8.855	1.0176	-0.1558	0.1152	12.7563	17.0288	5.4932	-41.6162	-72.2681	-70.8893	40.4200	-187	-118	362 
9.058	0.9902	-0.1958	0.2305	11.5967	41.3208	-7.9346	-35.4419	-70.2136	-76.0803	40.4400	-192	-119	357 
9.105	0.9604	-0.0879	0.3325	11.9019	55.6030	-7.1411	-25.2246	-66.6705	-85.5780	40.4300	-209	-118	348 
9.198	0.8145	-0.2085	0.4131	12.5122	63.1104	14.0991	-18.2428	-61.7706	-91.7853	40.4200	-220	-117	328 
9.245	0.7998	-0.2246	0.4790	8.6060	66.4063	13.6719	-14.7546	-56.4917	-94.4824	40.4300	-232	-113	310 
9.308	0.7163	-0.1509	0.5957	8.0566	62.8052	14.1602	-12.2333	-51.1633	-96.5094	40.4700	-240	-109	293 
9.526	0.7183	-0.1743	0.6802	6.2256	62.9272	11.1084	-11.1127	-45.5109	-97.0148	40.4700	-246	-104	272 
9.651	0.6660	-0.1479	0.7300	5.7373	64.8193	6.8970	-9.9811	-39.6716	-97.8058	40.4700	-249	-104	256 
9.698	0.5645	-0.1011	0.8584	7.0801	68.4814	2.9907	-8.7781	-33.0579	-98.8275	40.4700	-252	-99	236 
9.870	0.4370	-0.1211	0.9106	10.6812	59.9365	-4.6997	-7.4927	-26.5045	-99.9426	40.5000	-251	-99	215 
10.073	0.3760	-0.0742	0.9219	11.0474	48.0347	-10.1318	-5.8887	-21.2311	-101.4752	40.5100	-250	-102	196 
10.151	0.2915	-0.0859	0.9702	8.5449	42.8467	-5.8594	-4.4769	-16.6553	-102.7002	40.5000	-247	-100	177 
10.292	0.2183	-0.0479	0.9438	8.2397	41.5039	-4.0894	-3.4277	-12.5409	-103.6011	40.5100	-247	-102	162 
10.355	0.1221	-0.0747	1.0151	7.6904	39.6729	-4.0283	-2.6917	-8.4265	-104.1614	40.5100	-243	-104	148 
10.480	0.0498	0.0356	0.9956	12.5122	31.4941	4.1504	-1.5161	-5.0043	-104.8755	40.5300	-239	-105	138 
10.480	-0.0684	0.0293	1.0220	7.9346	30.4565	4.0894	-0.2747	-1.4832	-104.7986	40.5300	-234	-106	129 
10.526	-0.0781	0.0522	0.9966	4.0283	26.5503	-0.3052	0.4340	1.5985	-105.4028	40.5500	-229	-102	122 
10.651	-0.0762	0.0405	1.0054	0.8545	23.7427	-3.2349	0.6812	4.2188	-106.2708	40.5600	-224	-106	111 
10.698	-0.1138	0.0308	1.0122	0.3662	17.2729	0.9155	0.7855	6.4380	-107.0233	40.5500	-215	-102	104 
10.730	-0.1226	0.0132	1.0044	2.0142	9.4604	1.2207	0.9613	7.6904	-107.3474	40.5600	-212	-102	97 
11.107	-0.1465	0.0415	0.9834	2.1362	6.7749	0.7935	1.2030	8.3771	-107.9132	40.5800	-209	-104	98 
11.122	-0.1616	0.0435	0.9893	-0.2441	4.6997	0.1831	1.3953	9.0363	-108.4515	40.6000	-211	-104	94 
11.185	-0.1626	0.0420	1.0005	-2.2583	0.9155	-0.2441	1.3678	9.4373	-109.1327	40.6200	-204	-107	92 
11.372	-0.1509	0.0332	0.9937	-2.8076	-3.6011	0.0000	1.1646	9.2450	-109.7479	40.6400	-204	-103	92 
11.435	-0.1455	0.0317	0.9810	-1.2207	-4.4556	1.4648	1.0162	8.9923	-110.2368	40.6400	-205	-103	93 
11.622	-0.1416	0.0342	0.9893	-1.7090	-4.1504	1.0986	0.9064	8.6682	-110.6158	40.6500	-205	-101	94 
11.716	-0.1455	0.0161	1.0000	-2.9907	-8.9722	0.0610	0.7196	8.0530	-111.0168	40.6600	-209	-100	97 
11.904	-0.1265	0.0332	0.9937	-3.6011	-12.2070	-0.7935	0.4340	6.8719	-111.5497	40.6600	-209	-100	103 
11.904	-0.1182	0.0132	1.0020	-2.9907	-14.7095	1.1597	0.1428	5.6470	-111.8628	40.6600	-213	-100	102 
11.997	-0.0747	0.0073	1.0259	-3.9063	-26.6113	3.7231	-0.0659	3.7079	-111.9452	40.7100	-217	-102	103 
11.997	-0.0347	0.0176	0.9995	-5.4321	-27.9541	1.8311	-0.5878	0.7581	-111.8463	40.7000	-221	-97	111 
11.997	0.0176	0.0063	1.0068	-3.5400	-29.4189	4.8218	-0.9064	-1.8732	-111.5222	40.7100	-228	-96	118 
12.154	0.0884	-0.0264	1.0205	-6.8970	-35.5225	2.8076	-1.3788	-5.0482	-111.0773	40.7500	-236	-94	126 
12.404	0.1172	-0.0156	1.0205	-12.0239	-45.8984	-0.3662	-2.2357	-8.9099	-110.8081	40.7300	-241	-94	138 
12.497	0.1616	0.0103	0.9956	-14.1602	-62.6221	5.7983	-3.5321	-14.0845	-110.3467	40.7300	-244	-91	154 
12.654	0.2773	-0.1182	0.9385	-12.9395	-61.2793	9.0942	-5.3339	-20.0281	-108.4955	40.7500	-250	-88	175 
12.669	0.4004	-0.1084	0.8364	-19.7144	-83.6182	5.8594	-7.5916	-26.7352	-106.5125	40.7400	-254	-83	194 
12.734	0.5010	-0.1260	0.8042	-23.4985	-99.0601	7.9956	-10.7391	-34.8816	-103.9746	40.7700	-252	-86	223 
12.937	0.6191	-0.1812	0.6333	-27.7710	-108.6426	4.4556	-15.8972	-44.7583	-99.5801	40.7700	-247	-85	258 
13.031	0.8184	-0.2461	0.4106	-27.3438	-112.9761	-5.2490	-23.3624	-55.1788	-92.8949	40.7800	-235	-94	294 
13.172	1.0537	-0.2344	0.1445	-28.5034	-102.6001	-26.6724	-33.1732	-65.9619	-84.3475	40.7800	-216	-102	329 
13.172	1.1416	-0.2827	-0.1104	1.0376	-27.1606	-11.8408	-49.0210	-73.2678	-69.2853	40.7800	-191	-115	359 
13.250	1.0117	-0.1938	0.1807	6.6528	12.3291	-24.2920	-47.7631	-74.3445	-69.8676	40.7800	-181	-120	364 
13.250	0.9502	-0.0918	0.2822	5.9204	28.8696	-3.7231	-40.9406	-73.8171	-75.6958	40.7800	-183	-120	362 
13.422	1.0103	-0.0815	0.1929	1.4038	13.8550	4.2725	-35.7825	-72.5537	-80.2112	40.7800	-192	-121	355 
13.515	0.9365	-0.1890	0.3364	-1.1597	33.3252	-1.2207	-32.2559	-70.4059	-83.6719	40.7900	-197	-117	351 
13.609	0.9297	-0.1587	0.4302	-6.2256	-16.0522	19.6533	-33.5193	-69.5270	-82.3975	40.7800	-202	-114	348 
13.672	0.9810	-0.1768	0.1406	-7.3853	-22.7661	15.3198	-38.4467	-70.2850	-77.3932	40.8000	-196	-118	354 
13.672	0.9634	-0.2485	0.2549	0.5493	-4.5776	3.0518	-42.7148	-69.9554	-72.7130	40.7900	-191	-114	357 
13.937	0.9644	-0.2202	0.2271	-0.2441	-0.4883	-1.9531	-42.8796	-70.4224	-72.2571	40.8000	-189	-112	358 
14.015	0.9331	-0.1938	0.2808	1.1597	3.0518	4.3945	-42.4347	-70.1917	-72.3010	40.8200	-194	-114	360 
14.140	0.9443	-0.2031	0.2715	0.0610	1.2207	1.0986	-42.1271	-70.0104	-72.2461	40.8000	-190	-113	357 
14.203	0.9331	-0.2168	0.2710	-0.1221	-0.1831	2.6245	-42.0996	-69.7467	-71.9989	40.8100	-193	-112	355 
14.343	0.9663	-0.2339	0.2383	-0.7935	1.2817	0.7324	-42.7863	-69.7137	-71.0706	40.8300	-191	-112	355 
14.422	0.9326	-0.2183	0.2681	-0.3662	-0.9155	1.3428	-42.6709	-69.4940	-71.0101	40.8300	-191	-111	352 
14.593	0.9526	-0.2324	0.2671	-0.2441	0.7324	1.6479	-42.6709	-69.3842	-70.7739	40.8500	-191	-111	356 
14.703	0.9355	-0.2207	0.2769	-0.9766	4.9438	0.4883	-42.1710	-69.1425	-71.1365	40.8400	-193	-107	354 
14.797	0.9595	-0.2129	0.2915	-1.2207	4.8828	4.6387	-41.5778	-68.7744	-71.5869	40.8300	-193	-109	355 
14.985	0.9805	-0.1914	0.2715	1.4648	4.0894	-3.2959	-40.0616	-69.1809	-73.1635	40.8500	-195	-112	356 
15.204	0.8760	-0.2305	0.3433	-0.0610	-8.1787	-3.7842	-38.5730	-69.6643	-74.5367	40.8500	-194	-114	355 
15.204	1.0933	-0.1133	0.1172	15.5029	48.1567	-4.6387	-32.3438	-67.0715	-78.4149	40.8700	-197	-110	350 
15.376	0.8853	-0.1294	0.3145	16.7236	66.7114	0.2441	-24.4775	-62.8143	-85.3857	40.8700	-208	-106	337 
15.376	0.7319	-0.1826	0.4648	17.4561	75.1953	5.9204	-18.3252	-56.4697	-90.2747	40.8800	-222	-102	316 
15.438	0.5938	-0.1533	0.6514	13.4888	78.7964	7.1411	-14.0186	-49.5538	-93.4607	40.8900	-236	-96	293 
15.594	0.5610	-0.1104	0.7441	12.6953	79.3457	9.7656	-11.3049	-42.4786	-95.4382	40.9000	-244	-95	268 
15.594	0.5186	-0.1338	0.8525	13.7939	85.9375	3.7842	-9.0472	-34.9365	-96.9873	40.8900	-247	-92	242 
15.657	0.4507	-0.0942	0.9199	14.2212	79.8340	-1.0376	-6.7786	-26.6364	-98.7506	40.9100	-246	-92	215 
15.813	0.3574	-0.1367	0.9063	13.4888	71.5332	-7.4463	-4.8944	-19.2371	-100.0800	40.9200	-243	-91	191 
15.813	0.2275	-0.0156	0.9526	13.6719	69.4580	-9.2163	-3.1311	-12.2772	-102.0135	40.9100	-240	-93	169 
15.985	0.0752	0.0103	0.9946	14.2212	65.6738	-4.5166	-1.5161	-5.7513	-103.3154	40.9400	-233	-100	144 
16.063	-0.1172	0.0220	1.0454	8.4229	55.7251	-7.2632	-0.5109	0.5054	-104.4305	40.9300	-224	-102	125 
16.204	-0.1597	0.0581	1.0103	9.1553	33.9966	4.6997	0.8789	4.8065	-104.9414	40.9300	-215	-102	111 
16.360	-0.2412	0.1030	1.0000	8.8501	22.3999	4.0283	2.0050	7.9156	-105.5731	40.9300	-208	-101	99 
16.360	-0.2544	0.0811	0.9844	3.9673	14.0991	0.6714	2.7960	9.9646	-106.2323	40.9400	-205	-107	93 
16.438	-0.1929	0.0703	0.9985	0.5493	4.6387	-0.5493	3.1641	10.9918	-107.1057	40.9500	-201	-109	91 
16.563	-0.1807	0.0781	1.0000	-1.8921	-9.5825	-1.2207	3.0762	10.6238	-108.0450	40.9500	-203	-106	92 
16.610	-0.1777	0.0674	0.9873	-3.9673	-12.8784	-1.4038	2.7246	9.3658	-108.9954	40.9500	-200	-104	89 
16.814	-0.1460	0.0557	1.0186	-2.2583	-20.0806	0.6104	2.3895	7.7618	-109.8083	40.9800	-206	-106	96 
16.814	-0.1055	0.0820	1.0083	-7.2021	-35.0342	6.2256	2.0929	4.8889	-110.2258	40.9900	-213	-106	99 
17.142	-0.0415	0.0415	1.0005	-13.3057	-39.0625	4.4556	1.1646	1.1206	-110.0940	40.9700	-221	-102	112 
17.157	0.0117	0.0386	1.0195	-12.2681	-44.2505	2.0752	-0.0989	-2.7740	-110.1984	41.0000	-229	-100	121 
17.204	0.0923	0.0464	1.0449	-10.6201	-50.4150	8.9111	-1.1591	-7.5641	-109.8468	41.0100	-232	-96	135 
17.220	0.2432	-0.0879	1.0054	-11.4746	-50.4761	5.3711	-2.6257	-12.6178	-108.9185	41.0100	-238	-94	151 
17.345	0.3057	-0.0376	0.9688	-13.1836	-58.7158	1.9531	-4.0485	-17.9791	-108.1549	41.0100	-248	-91	171 
17.423	0.4194	-0.0889	0.9185	-10.4370	-66.0400	4.1504	-5.4712	-24.0436	-107.1771	41.0000	-249	-90	188 
17.626	0.5068	-0.0654	0.8301	-8.6060	-76.5991	5.7373	-7.0313	-30.9595	-105.6335	41.0100	-250	-92	211 
17.798	0.6177	-0.0933	0.7378	-10.9253	-83.0078	2.2583	-9.1241	-38.7653	-103.5242	41.0100	-249	-95	235 
17.845	0.7114	-0.1548	0.6123	-12.3901	-93.0176	0.7935	-12.0575	-47.3016	-100.5359	41.0200	-245	-93	263 
17.845	0.8301	-0.1050	0.4653	-13.9160	-89.7217	1.3428	-16.0291	-56.3324	-96.6852	41.0400	-236	-99	298 
18.001	0.9570	-0.1802	0.2764	-17.8223	-74.5850	-3.9673	-22.3352	-64.7479	-90.8734	41.0300	-220	-103	321 
18.220	1.0005	-0.1851	0.1597	-9.3384	-39.1235	-7.9956	-28.5699	-71.0321	-85.8472	41.0100	-201	-108	346 
18.298	0.9829	-0.1323	0.2109	-0.4883	-14.0991	3.0518	-33.6786	-73.7842	-80.4089	41.0200	-193	-116	359 
18.439	0.9429	-0.1626	0.1646	-0.2441	3.0518	0.0000	-36.3593	-74.2621	-77.4316	41.0300	-190	-112	357 
18.517	1.0117	-0.2710	0.2500	2.9297	19.4092	4.3945	-35.1947	-72.4603	-78.4973	41.0300	-189	-115	358 
18.704	1.0205	-0.0781	0.2056	4.8828	13.7329	-1.2207	-30.5475	-72.3669	-82.6392	41.0400	-193	-115	355 
18.798	0.7900	0.0103	0.3457	8.0566	15.0146	-27.1606	-25.6311	-70.8893	-86.9952	41.0500	-195	-114	354 
18.939	0.9287	-0.0957	0.3438	-0.4272	0.1221	-2.1973	-21.6321	-70.7739	-90.6042	41.0700	-199	-114	347 
18.954	0.9580	-0.0928	0.2920	-1.5259	-6.8970	0.0610	-21.5607	-71.0321	-90.5328	41.0700	-200	-117	345 
19.173	0.9517	-0.0933	0.2915	-0.9155	-4.9438	-1.8921	-21.5332	-71.5430	-90.4669	41.0800	-198	-119	347 
19.173	0.9673	-0.1084	0.2817	-0.3052	3.0518	1.2207	-21.7200	-71.8451	-90.1538	41.0600	-198	-118	347 
19.235	0.9536	-0.0938	0.3022	0.0000	1.4038	0.4883	-21.5607	-71.6144	-90.1318	41.0700	-200	-118	350 
19.392	0.9404	-0.0967	0.3228	-0.2441	-0.4883	1.2817	-21.5057	-71.3727	-89.9780	41.0800	-202	-116	349 
19.439	0.9688	-0.1089	0.2900	-0.2441	-2.1362	5.1270	-22.1155	-71.3452	-89.1376	41.0700	-201	-115	350 
19.548	0.9072	-0.0625	0.3271	-3.3569	-13.8550	-2.6245	-23.4393	-71.6199	-87.7698	41.1000	-204	-115	349 
19.626	0.8638	-0.2090	0.3066	-2.9907	-3.7231	3.0518	-26.3452	-71.4935	-85.2374	41.0900	-195	-116	353 
19.802	0.9126	-0.4180	0.3618	11.3525	-26.6113	21.7285	-32.2229	-71.2958	-78.1458	41.1100	-195	-113	352 
19.818	1.1025	-0.2886	0.0576	0.4883	14.3433	15.8691	-39.2981	-70.9937	-70.4553	41.1100	-189	-110	357 
19.912	1.0615	-0.2583	0.1333	8.8501	55.9082	-7.2021	-33.8104	-68.6865	-75.4926	41.1200	-194	-105	349 
20.083	0.9175	-0.0674	0.3550	11.7188	77.5146	-14.4653	-22.5220	-63.5010	-86.5283	41.1200	-207	-104	335 
20.162	0.7813	-0.1807	0.4995	17.9443	77.6367	2.9297	-15.1007	-56.4148	-92.9773	41.1200	-227	-102	311 
20.365	0.7930	-0.0874	0.6074	11.4136	77.6367	0.4272	-10.2393	-49.2188	-97.1027	41.1200	-236	-96	288 
20.365	0.6616	-0.0854	0.7271	11.5356	80.2612	5.0659	-7.4268	-42.1875	-99.2560	41.1200	-246	-99	264 
20.630	0.6074	-0.0933	0.7861	9.0942	80.3223	-5.4932	-5.5151	-34.9310	-100.6787	41.1100	-249	-96	238 
20.630	0.4204	-0.0303	0.9014	8.1787	70.6177	-8.5449	-3.8232	-27.2955	-102.2388	41.1500	-251	-98	212 
20.724	0.3560	-0.0298	0.9487	10.3149	63.4766	-5.8594	-2.2577	-20.7147	-103.5901	41.1300	-248	-98	192 
20.865	0.2500	-0.0112	0.9541	6.3477	53.1616	-9.0332	-1.1151	-14.7217	-104.8096	41.1400	-243	-101	170 
20.880	0.1743	0.0073	0.9761	8.3618	54.5654	-8.6670	-0.1099	-9.1626	-106.0620	41.1600	-240	-104	147 
20.959	0.0088	0.0225	1.0103	6.8359	50.4761	-3.1128	0.8569	-3.6090	-107.1771	41.1600	-229	-105	129 
20.959	-0.0908	0.0645	1.0176	2.6855	34.0576	-2.5635	1.3678	0.8405	-107.9791	41.1500	-223	-110	120 
21.084	-0.1343	0.0972	0.9946	3.1738	22.3999	-0.3052	1.7853	3.7079	-108.7042	41.1700	-217	-106	110 
21.162	-0.1787	0.0493	0.9824	4.3335	26.0620	0.1831	2.3511	6.4929	-109.3140	41.1800	-212	-108	110 
21.318	-0.1675	0.0796	1.0190	1.7090	10.2539	-0.6714	2.7576	8.5693	-110.0226	41.2000	-206	-112	97 
21.412	-0.1514	0.0684	1.0015	-0.9155	-2.8687	0.3052	2.8455	8.7231	-110.7257	41.1600	-201	-113	93 
21.521	-0.1309	0.0625	0.9814	-1.7700	-8.3008	-0.1221	2.7521	8.0859	-111.4453	41.2000	-204	-116	94 
21.584	-0.1235	0.0581	0.9956	-2.6245	-10.7422	0.5493	2.5983	7.2015	-112.0551	41.2000	-208	-113	95 
21.693	-0.1084	0.0469	1.0068	-3.1738	-12.8784	1.5869	2.3785	6.0315	-112.4615	41.2100	-207	-111	98 
21.756	-0.1050	0.0615	1.0249	-4.0894	-20.3857	0.7324	2.0874	4.4714	-112.9065	41.2300	-212	-111	99 
22.068	-0.0342	0.0664	0.9961	-7.4463	-29.4800	0.0610	1.5491	1.7578	-113.2581	41.2300	-219	-110	103 
22.068	-0.0161	0.0269	1.0166	-7.7515	-31.6772	4.2725	0.9119	-1.1206	-113.3240	41.2500	-226	-107	116 
22.068	0.0610	0.0215	1.0146	-12.5122	-41.1987	-0.1831	-0.0934	-4.6747	-113.2031	41.2600	-230	-104	126 
22.147	0.1343	0.0327	1.0063	-13.7329	-49.5605	11.5356	-1.3019	-9.1956	-112.6813	41.2700	-240	-98	137 
22.334	0.1294	-0.0625	1.0366	-11.3525	-43.6401	4.6387	-2.7411	-13.2880	-111.5826	41.2800	-240	-100	150 
22.553	0.3394	-0.0747	0.8784	-15.2588	-46.1426	12.9395	-4.4385	-18.3856	-110.2203	41.2700	-245	-93	168 
22.553	0.3711	-0.0996	0.9355	-14.2822	-59.4482	3.9063	-6.2292	-23.0878	-108.8086	41.2700	-248	-89	188 
22.600	0.4966	-0.1201	0.8599	-15.0757	-56.3965	3.4790	-8.2672	-28.9874	-107.0453	41.2700	-247	-90	206 
22.725	0.5942	-0.1318	0.7661	-13.9771	-63.2935	5.1270	-10.6403	-35.0134	-104.8645	41.2700	-247	-93	225 
22.787	0.6440	-0.1489	0.7153	-12.3901	-68.7256	9.8267	-13.4363	-41.3416	-101.8707	41.2700	-246	-90	247 
22.912	0.7388	-0.1733	0.6133	-13.4888	-77.8198	8.7280	-17.4738	-48.1641	-97.7509	41.2600	-240	-92	272 
23.006	0.8242	-0.2480	0.4912	-14.7095	-84.8999	-3.1128	-23.0219	-55.6183	-92.3456	41.2500	-227	-95	297 
23.162	0.9819	-0.1831	0.2710	-15.4419	-89.7827	-13.9771	-29.2676	-63.8580	-86.3416	41.2500	-212	-100	323 
23.256	0.9775	-0.2700	0.0933	-7.9346	-28.8086	-24.3530	-35.8484	-70.2740	-80.6396	41.2800	-200	-110	348	0.9775	-0.2700	0.0933	-7.9346	-28.8086	-24.3530	-35.8484	-70.2740	-80.6396	41.2900	-191	-115	355 
23.584	1.0825	-0.2485	-0.0996	-4.1504	44.7998	-3.1128	-43.6652	-74.4379	-72.3834	41.2500	-183	-118	362 
23.584	1.0015	-0.0508	0.2217	3.5400	5.8594	-1.4038	-32.5635	-72.3999	-82.6996	41.2800	-191	-120	360 
23.584	0.9966	-0.1753	0.2832	4.5776	23.8037	-0.0610	-29.7180	-71.3562	-85.0452	41.2600	-198	-117	356 
23.631	0.8916	-0.1479	0.3579	-2.1362	5.5542	2.6855	-26.9330	-69.6533	-87.5391	41.3000	-200	-117	349 
23.631	0.9087	-0.1943	0.3730	-1.8921	-5.3711	3.0518	-28.0811	-69.1205	-86.2262	41.3000	-200	-116	349 
23.740	0.9658	-0.1484	0.2544	0.5493	-7.5073	-2.5635	-29.1302	-69.8840	-84.8035	41.2800	-196	-115	350 
23.928	0.9712	-0.1353	0.2651	-0.1831	-1.2817	-1.0986	-29.0918	-70.4169	-84.5837	41.2800	-197	-118	352 
23.990	0.9614	-0.1401	0.2969	-1.0986	4.2725	-0.4883	-28.7842	-70.3784	-84.7211	41.3000	-198	-119	353 
24.334	0.9331	-0.1387	0.3188	-0.8545	2.9907	1.4038	-28.0975	-69.9994	-85.2759	41.2900	-195	-118	350 
24.334	0.9307	-0.1475	0.3193	-0.8545	-1.0376	0.7324	-28.1470	-69.8071	-85.0616	41.3000	-198	-120	348 
24.397	0.9502	-0.1460	0.2979	-0.2441	-2.4414	0.3662	-28.4216	-69.9280	-84.6057	41.3200	-197	-116	347 
24.553	0.9521	-0.1426	0.2939	0.0610	0.0610	0.7324	-28.6798	-70.0818	-84.1388	41.2900	-196	-119	351 
24.631	0.9536	-0.1519	0.2969	-0.3662	0.6104	0.8545	-28.7622	-70.0763	-83.8586	41.3100	-199	-118	352 
24.725	0.9624	-0.1538	0.3013	-0.1221	5.5542	4.5166	-28.5645	-69.7852	-83.8806	41.3100	-198	-118	351 
24.773	0.9204	-0.1323	0.3193	0.3662	3.1128	-4.2114	-27.7240	-69.3457	-84.5673	41.3100	-198	-117	347 
24.898	0.9399	-0.1592	0.3291	-0.1831	0.1831	1.1597	-27.5262	-69.1534	-84.5782	41.3300	-200	-115	348 
24.961	0.9517	-0.1187	0.3643	-3.1128	0.0000	-3.2959	-27.3175	-69.0930	-84.6936	41.3100	-196	-120	350 
24.961	0.9316	-0.2012	0.3325	3.4180	0.4883	4.2725	-26.1365	-69.6368	-86.0065	41.3400	-201	-119	345 
25.117	0.8472	-0.1470	0.3716	5.0659	-4.7607	-7.9956	-25.6531	-70.3949	-85.8142	41.3400	-199	-118	347 
25.117 
25.258 
25.320	0.9756	-0.0308	0.3125	14.2822	64.6362	-17.3950	-23.1647	-66.7255	-86.4734	41.3300	-207	-110	346 
25.523	0.9312	0.0190	0.4404	16.7847	72.6929	-6.8359	-14.3317	-60.8368	-94.2023	41.3500	-223	-109	328 
25.523	0.9370	-0.1465	0.5615	10.0098	82.6416	-9.3384	-9.9261	-53.2507	-97.6245	41.3500	-231	-106	299 
25.695	0.7285	-0.0459	0.6802	7.2632	74.8901	-7.6904	-6.8884	-45.0659	-100.5743	41.3400	-247	-106	272 
25.742	0.5830	-0.0781	0.7192	7.1411	75.3784	-7.9346	-5.1855	-37.3480	-101.9971	41.3500	-251	-102	248 
25.930	0.4243	-0.0200	0.9004	8.1787	75.5615	-3.0518	-3.5046	-29.3005	-103.4802	41.3500	-254	-105	217 
26.023	0.3169	-0.0171	0.9741	8.0566	69.3970	-5.0049	-2.3126	-22.2089	-104.5624	41.3800	-252	-102	194 
26.383	0.2642	-0.0132	0.9844	8.2397	58.0444	-5.4932	-1.2305	-16.0236	-105.5017	41.3800	-246	-104	175 
26.398	0.2212	-0.0684	0.9229	9.5825	55.6030	-7.5684	-0.2032	-10.7611	-106.3202	41.3800	-243	-107	156 
26.680	0.0610	0.0239	0.9888	8.9111	63.9038	-8.1787	0.7251	-4.5209	-107.3529	41.3500	-234	-111	140 
26.758	-0.0908	0.1128	1.0020	7.0801	54.1992	-5.5542	1.6809	1.2360	-108.3087	41.3600	-230	-115	116 
26.883	-0.2090	0.0908	1.0195	4.5776	35.6445	-0.3662	2.6477	6.0260	-109.1656	41.3600	-216	-118	105 
26.883	-0.2241	0.0767	0.9927	-3.3569	27.3438	0.2441	2.8015	9.3878	-109.9677	41.3700	-209	-116	95 
26.883	-0.2598	0.0776	0.9790	-3.4790	20.2637	-0.2441	2.5928	11.9696	-110.6158	41.3400	-204	-115	89 
26.883	-0.2603	0.0488	0.9990	-4.0283	6.8970	-1.2207	2.2687	13.6011	-111.5277	41.3600	-197	-115	84 
27.102	-0.2476	0.0410	0.9780	-1.7700	-9.1553	-2.8076	1.9501	13.4637	-112.4725	41.3500	-193	-113	85 
27.102	-0.1909	0.0288	0.9873	1.0986	-6.4697	2.8687	1.8896	12.6178	-113.2635	41.3500	-197	-117	85 
27.196	-0.2153	0.0654	0.9888	-1.2817	-8.9722	2.2583	2.0160	11.8762	-113.6481	41.3700	-195	-117	84 
27.196	-0.1763	0.0503	1.0029	-2.4414	-7.7515	3.9673	1.9995	10.7996	-113.9502	41.3700	-197	-115	85 
27.321	-0.1797	0.0400	0.9946	-3.1128	-17.4561	4.2114	1.7249	9.4757	-114.1864	41.3800	-201	-113	91 
27.367	-0.1489	0.0420	1.0093	-3.1738	-25.3906	5.0659	1.5656	7.3773	-114.1479	41.4000	-206	-109	98 
27.492	-0.1074	0.0391	1.0244	-5.7373	-35.8276	3.5400	1.1975	4.3231	-114.1699	41.4100	-215	-112	97 
27.539	-0.0615	0.0039	1.0088	-4.4556	-52.8564	5.1880	0.8075	0.0220	-113.9612	41.4200	-223	-110	113 
27.696	0.0347	0.0142	0.9980	-8.1787	-66.5894	3.7842	0.1263	-5.7513	-113.7854	41.4200	-234	-108	125 
27.758	0.1699	0.0215	1.0317	-11.4136	-66.9556	2.7466	-0.8075	-11.9751	-113.7689	41.4400	-246	-103	146 
27.805	0.2939	0.0254	0.9297	-11.4136	-83.0688	1.4038	-1.9940	-18.9954	-113.2800	41.4300	-250	-103	170 
27.961	0.3721	-0.0562	0.8955	-14.2822	-78.1860	5.6763	-3.6255	-26.4221	-111.7090	41.4400	-254	-100	194 
28.102	0.5127	-0.0659	0.7822	-15.3809	-89.1113	4.2114	-6.0260	-34.4641	-109.6930	41.4600	-252	-99	218 
28.164	0.6646	-0.1177	0.6279	-11.4136	-108.1543	9.2163	-8.9868	-44.1321	-106.4630	41.4600	-249	-101	249 
28.211	0.8403	-0.1680	0.4878	-14.5264	-109.0698	14.5264	-13.9087	-54.4482	-101.2225	41.4800	-240	-104	285 
28.383 
28.508	0.9546	-0.1318	0.2056	-8.4229	-21.6675	-12.5122	-25.6311	-70.7080	-90.3900	41.4700	-208	-116	342 
28.539	0.8750	-0.0503	0.3350	-1.4648	0.6104	-9.2773	-24.4171	-71.4001	-91.6534	41.4800	-200	-117	348 
28.617	0.8057	-0.1401	0.4111	-2.3193	9.0332	-2.7466	-24.1974	-71.2244	-91.3898	41.4700	-197	-120	350 
28.792	0.8789	-0.0981	0.3965	2.3193	20.4468	-3.9673	-23.9392	-70.7684	-91.2524	41.4700	-200	-118	350 
28.854	1.0107	-0.2207	0.2710	-4.6387	27.7100	12.5732	-25.4059	-70.0323	-90.3296	41.4500	-200	-119	349 
29.026	0.8716	-0.1167	0.4072	-0.3052	-0.3662	3.3569	-23.9227	-68.0328	-91.1810	41.4600	-207	-113	343 
29.026	0.8735	-0.1289	0.4336	-0.4272	-1.2207	-1.3428	-24.1534	-67.7307	-90.6097	41.4600	-204	-111	342 
29.261	0.9741	-0.1577	0.2744	-2.4414	-10.6201	5.9814	-25.8234	-68.5162	-88.6707	41.4800	-204	-114	347 
29.354	0.9546	-0.1445	0.3052	-1.9531	0.9766	1.4648	-27.0264	-68.7964	-87.3138	41.4700	-202	-114	348 
29.683	0.9385	-0.1484	0.3340	0.8545	2.0142	2.1362	-27.1747	-68.5822	-86.8304	41.4800	-203	-115	344 
29.698	0.9243	-0.1509	0.3608	-0.3052	1.2817	1.2207	-27.0319	-68.2635	-86.6547	41.4700	-202	-113	341 
29.698	0.9194	-0.1465	0.3452	-0.6714	-5.6152	0.5493	-27.2900	-68.3020	-86.1493	41.4900	-203	-112	343 
29.761	0.9546	-0.1563	0.3130	-1.0986	-4.5776	-0.1831	-27.7954	-68.8513	-85.4132	41.4700	-200	-115	345 
29.917	0.9375	-0.1567	0.3213	-0.4883	0.3662	1.0986	-28.2239	-69.0546	-84.7925	41.4900	-205	-113	348 
29.995	0.9360	-0.1489	0.3296	-0.4272	-1.1597	0.5493	-28.3612	-69.0656	-84.4354	41.5000	-200	-113	346 
30.167	0.9351	-0.1572	0.3242	-0.8545	-2.0752	0.0610	-28.3942	-69.1864	-84.2487	41.5000	-201	-115	344 
30.261	0.9443	-0.1528	0.3135	-0.6104	-2.3804	-0.3662	-28.5040	-69.4226	-83.9850	41.5100	-204	-115	346 
30.339	0.9482	-0.1514	0.3115	-0.5493	-0.4272	-0.1221	-28.5754	-69.5819	-83.7762	41.5300	-200	-116	349 
30.386	0.9395	-0.1416	0.3330	-0.5493	-0.6714	-0.1831	-28.5095	-69.6094	-83.6664	41.5100	-201	-114	349 
30.386	0.9175	-0.1553	0.3340	-0.8545	-1.2207	-0.3662	-28.4546	-69.6808	-83.8092	41.5400	-200	-117	345 
30.417	0.9712	-0.1133	0.2744	-3.7231	-10.0098	-5.7373	-28.5150	-70.3894	-83.7708	41.5300	-198	-118	346 
30.604	0.3579	-0.1523	0.6382	8.6670	-19.4092	3.6011	-30.2838	-72.3724	-80.7275	41.5400	-194	-118	352 
30.808	1.0381	-0.2080	0.1113	8.9722	16.7847	7.0801	-33.5907	-72.3889	-76.2286	41.5400	-193	-114	357 
30.871	1.0181	-0.1606	0.1914	4.5166	40.7715	-9.2773	-27.8339	-70.3180	-81.5405	41.5500	-196	-112	353 
30.980	0.8965	-0.0845	0.2876	7.3853	72.8760	-7.8125	-19.5667	-66.1652	-89.6429	41.5500	-208	-111	338 
31.043	0.6670	-0.1519	0.4863	8.3008	78.1860	11.7188	-13.8483	-59.0680	-94.9329	41.5700	-219	-108	317 
31.199	0.5605	-0.1440	0.6094	10.1318	81.1768	2.0142	-10.2283	-51.7511	-97.9102	41.5400	-236	-106	295 
31.402	0.4995	-0.0840	0.7437	8.3618	82.6416	1.5869	-7.5037	-44.1376	-100.2722	41.5700	-246	-107	269 
31.465	0.5156	-0.0884	0.8247	9.7656	88.6841	-4.5166	-5.4163	-36.4087	-102.2223	41.5700	-250	-106	246 
31.465	0.4302	-0.0137	0.8892	10.6812	78.3691	-8.6060	-3.3673	-27.9218	-104.2218	41.5600	-249	-107	216 
31.590	0.3403	-0.0117	0.9434	11.4136	68.1152	-11.2915	-1.6864	-20.6982	-105.8093	41.5900	-248	-107	190 
31.652	0.2559	-0.0142	0.9136	10.8643	69.3970	3.0518	-0.4559	-14.3097	-106.5070	41.5800	-243	-109	168 
32.027	0.0566	0.0034	0.9668	11.2305	64.7583	2.5024	0.8569	-7.0807	-106.7377	41.5800	-240	-110	144 
32.043	-0.0483	0.0703	1.0020	7.9956	65.0024	0.7935	1.7249	-0.2637	-106.9849	41.5800	-231	-111	125 
32.090	-0.1548	0.1113	0.9912	14.5264	53.7109	1.9531	3.2410	5.8173	-107.4188	41.5900	-217	-115	107 
32.090	-0.2891	0.1582	0.9937	10.8643	50.4150	-4.6387	4.6582	11.1731	-108.3142	41.5800	-202	-115	93 
32.215	-0.3042	0.0781	0.9517	2.6245	22.5830	-1.6479	5.4712	14.7821	-109.1107	41.6000	-194	-121	84 
32.277	-0.3403	0.1104	0.9521	0.6104	17.7612	-2.8076	5.6744	16.9299	-110.3632	41.6000	-185	-124	75 
32.449	-0.3511	0.1279	0.9541	-0.2441	9.9487	-0.8545	5.8228	18.4625	-111.5881	41.6000	-178	-124	74 
32.512	-0.3179	0.1064	0.9526	-2.6245	-5.1270	2.5024	5.7568	18.6383	-112.5989	41.6100	-178	-123	69 
32.684	-0.3159	0.1045	0.9595	-2.6245	-9.4604	2.2583	5.6195	17.9572	-113.4393	41.6200	-178	-122	70 
32.684	-0.2808	0.0952	0.9609	-6.8970	-15.5029	0.9155	5.1801	16.6553	-114.3567	41.6300	-181	-121	73 
32.762	-0.2681	0.0981	0.9658	-7.9956	-21.3013	0.6104	4.5099	14.8096	-115.2631	41.6400	-184	-117	78 
33.074	-0.1694	0.0547	0.9565	-10.8032	-35.8276	-0.6104	2.5708	8.7781	-116.8286	41.6500	-200	-115	89 
33.152	-0.1035	0.0327	1.0117	-9.1553	-41.3818	1.8311	1.5930	5.1141	-117.2351	41.6800	-207	-106	98 
33.152	-0.0244	0.0420	1.0127	-10.5591	-44.8608	4.0894	0.6757	0.7690	-117.1417	41.6700	-218	-111	109 
33.449	0.0635	0.0161	1.0093	-13.7329	-48.7671	3.7842	-0.4230	-3.9606	-116.7188	41.6900	-228	-106	125 
33.449	0.1421	-0.0674	0.9580	-10.1318	-34.1797	0.0000	-1.8073	-8.5309	-116.0706	41.6800	-234	-100	138 
33.543	0.2061	-0.0425	0.9390	-7.1411	-52.7954	0.4272	-2.5159	-12.6178	-115.3510	41.6800	-240	-101	152 
33.731	0.3330	-0.0200	0.9600	-7.4463	-47.9126	4.3335	-3.2300	-17.6935	-114.6698	41.6900	-246	-100	163 
33.856	0.4155	-0.0806	0.8877	-6.5918	-58.7769	7.7515	-4.2352	-23.0658	-113.3734	41.7000	-251	-99	181 
33.856	0.4785	-0.0474	0.8594	-6.8970	-57.3730	-0.1221	-5.2954	-28.4985	-112.0715	41.6900	-253	-100	203 
33.934	0.5557	-0.0825	0.7988	-5.4932	-63.7207	-0.9155	-6.4050	-34.2499	-110.6653	41.7100	-254	-100	219 
34.293	0.6060	-0.0874	0.7495	-8.5449	-71.4111	-4.1504	-7.6794	-40.4791	-109.1547	41.7200	-251	-101	243 
34.309	0.7300	-0.1533	0.6357	-9.6436	-84.5337	2.1973	-9.7064	-47.9279	-106.7651	41.7200	-248	-102	262 
34.309	0.8276	-0.0913	0.4907	-12.5122	-94.6655	0.6714	-13.1232	-56.1786	-103.1781	41.7300	-238	-106	289 
34.418	1.0200	-0.1533	0.2671	-11.8408	-80.8105	-10.0098	-18.2043	-64.9182	-98.2452	41.7200	-223	-111	321 
34.715	1.1299	-0.1147	0.0361	-10.5591	-29.1748	2.9297	-23.6920	-71.2354	-93.2959	41.7400	-207	-117	343 
34.810	0.9521	-0.1011	0.2827	-3.0518	-6.5308	8.6670	-26.5924	-72.1967	-90.0824	41.7500	-197	-118	355 
35.013	0.9863	-0.1489	0.3232	1.5259	14.0991	-5.9814	-28.5260	-71.7517	-87.7258	41.7300	-193	-120	355 
35.029	0.9414	-0.1851	0.2939	-3.8452	28.5034	8.6060	-27.7899	-70.4828	-88.4949	41.7300	-197	-117	353 
35.029	0.9414	-0.1489	0.4199	7.2021	14.2212	0.8545	-24.8181	-68.2086	-90.8844	41.7500	-202	-114	345 
35.138	0.9097	-0.1685	0.4683	-0.6714	7.5073	-3.9063	-22.5549	-66.9672	-92.4225	41.7400	-206	-116	338 
35.357	0.9199	-0.1255	0.3774	-2.0752	-11.0474	0.3052	-22.4451	-67.0441	-92.2742	41.7400	-208	-110	339 
35.357	0.9717	-0.1450	0.3062	-2.0142	-3.8452	-0.1221	-23.4393	-67.9834	-91.1096	41.7300	-210	-115	342 
35.451	0.9551	-0.1284	0.3188	0.8545	3.6621	-0.9766	-23.5767	-68.1152	-90.6866	41.7500	-205	-118	342 
35.591	0.9277	-0.1338	0.3579	0.3662	5.6152	2.0752	-22.9834	-67.6648	-90.9448	41.7500	-208	-115	342 
35.591	0.8818	-0.1284	0.4165	0.6714	0.7324	1.8311	-22.7911	-67.0441	-90.7855	41.7500	-204	-118	340 
35.888	0.9087	-0.1367	0.3818	-0.6714	-3.4180	0.2441	-22.9504	-67.1320	-90.2966	41.7500	-205	-113	340 
35.904	0.9482	-0.1411	0.3379	-0.4272	-2.8687	-0.0610	-23.2690	-67.5055	-89.7363	41.7600	-206	-111	341 
35.904	0.9297	-0.1445	0.3647	0.6104	2.0142	1.9531	-23.4998	-67.5714	-89.2365	41.7700	-205	-116	343 
35.904	0.9751	-0.0825	0.3760	-3.2349	3.9673	-4.3945	-21.9177	-67.4231	-90.8350	41.7700	-205	-115	342 
36.013 
36.107	0.9053	0.0132	0.5645	6.8970	28.0151	-4.2725	-36.2054	-70.1257	-75.1025	41.7800	-192	-110	355 
36.404	0.9741	-0.1094	0.1743	10.6201	48.1567	-13.4277	-29.1357	-68.8953	-81.7767	41.7500	-197	-106	348 
36.404	0.9497	-0.0859	0.3906	9.6436	57.7393	-8.1177	-19.5996	-64.5667	-90.6647	41.7500	-208	-109	337 
36.404	1.0288	-0.0854	0.5806	8.4839	65.1855	-1.0986	-13.7384	-58.9581	-96.0205	41.7600	-222	-109	318 
36.576	0.6606	-0.1680	0.5503	7.5684	67.3828	22.0337	-11.0907	-53.0640	-97.9871	41.7600	-235	-103	297 
36.654	0.7441	-0.1084	0.6646	7.0190	65.3076	2.3193	-9.2889	-47.2797	-99.4263	41.7600	-241	-103	278 
36.826	0.6426	-0.0908	0.7314	6.8970	70.3125	2.0142	-7.2675	-41.1877	-101.1566	41.7800	-249	-102	258 
37.076	0.6157	-0.0737	0.7905	6.5918	71.9604	-5.7373	-5.6470	-34.4861	-102.5519	41.7800	-251	-101	238 
37.091	0.4648	-0.0479	0.8789	6.4087	63.2324	-7.8125	-4.2627	-27.7130	-103.9966	41.7900	-250	-101	214 
37.185	0.3521	-0.0332	0.9272	7.6904	54.6875	-5.1880	-3.0981	-21.7310	-105.0897	41.7800	-251	-101	196 
37.185	0.2607	-0.0098	0.9551	8.4839	54.8096	-1.5869	-1.9995	-16.0785	-105.9631	41.7900	-246	-105	177 
37.185	0.1982	-0.0166	0.9941	10.7422	51.7578	-1.1597	-0.9119	-10.5084	-106.3422	41.7900	-240	-107	157 
37.263	0.1055	0.0503	0.9751	5.4321	45.3491	9.9487	0.1044	-5.8282	-106.6937	41.7900	-233	-106	139 
37.560	-0.0532	0.0020	1.0137	0.0000	45.3491	4.0283	0.2032	-1.0547	-106.3312	41.7900	-225	-103	128 
37.576	-0.1533	0.0449	1.0034	3.9063	32.5928	-1.5869	0.5493	3.1696	-106.7706	41.7800	-218	-104	113 
37.638	-0.1777	0.0630	0.9980	3.1738	28.5034	-7.0190	1.1700	6.5588	-107.9846	41.7800	-211	-105	102 
37.826	-0.1748	0.0386	1.0137	-2.3804	16.4795	-5.1270	1.1426	9.0363	-109.2865	41.7800	-206	-108	93 
38.013	-0.2021	0.0376	1.0073	-2.0752	3.4180	-0.0610	0.9448	9.9591	-110.1654	41.8000	-203	-106	95 
38.013	-0.1753	0.0259	0.9897	-2.0752	-4.2725	2.3193	0.8624	9.9152	-110.6378	41.8000	-201	-107	96 
38.076	-0.1621	0.0166	0.9946	-0.7324	-7.9956	2.6245	0.8350	9.2780	-110.9399	41.8200	-200	-106	98 
38.185	-0.1323	0.0269	0.9995	-0.7935	-13.0005	1.6479	0.8405	8.2288	-111.3739	41.8100	-200	-108	96 
38.279	-0.0986	0.0293	0.9912	-0.2441	-13.0005	0.3052	0.8130	6.7731	-111.7529	41.8300	-206	-105	102 
38.357	-0.1191	0.0308	1.0181	-3.6011	-19.9585	2.0142	0.7581	5.2679	-112.0441	41.8400	-209	-105	105 
38.404	-0.0850	0.0439	1.0146	-6.2866	-28.8696	1.7700	0.3406	2.8839	-112.2803	41.8300	-214	-103	111 
38.498	-0.0190	0.0088	1.0176	-5.4321	-38.8794	5.0049	-0.1428	-0.4120	-112.1814	41.8600	-220	-106	117 
38.545	0.0723	-0.0308	1.0039	-7.8735	-39.7949	1.0376	-0.8569	-4.4550	-111.9177	41.8400	-225	-101	127 
38.701	0.1016	-0.0112	1.0098	-6.8359	-47.8516	3.1738	-1.5326	-8.4650	-111.7474	41.8700	-234	-100	137 
38.763	0.2358	-0.0039	0.9585	-8.3008	-54.7485	6.0425	-2.2522	-13.4692	-111.2146	41.8600	-239	-101	151 
38.951	0.3149	-0.0542	1.0435	-9.5825	-64.0259	8.6060	-3.4058	-19.0009	-109.9786	41.8600	-246	-98	168 
39.185	0.3613	-0.1157	0.7495	-11.5967	-82.1533	7.0801	-5.1526	-26.6418	-108.3911	41.9000	-250	-92	190 
39.295	0.5386	-0.0342	0.8511	-9.6436	-70.4956	-0.7935	-6.2457	-33.3875	-107.7045	41.9000	-252	-94	217 
39.295	0.6387	-0.1396	0.7178	-5.6152	-79.2236	3.2349	-7.7948	-40.7867	-105.9467	41.8900	-249	-97	242 
39.295	0.7129	-0.1128	0.6206	-7.6294	-89.7827	-0.8545	-9.9371	-49.0814	-103.6121	41.9000	-247	-101	268 
39.373	0.8237	-0.0547	0.4360	-5.7983	-94.0552	-0.3052	-12.6727	-58.2605	-100.6897	41.9000	-233	-105	297 
39.654	1.0430	-0.1343	0.2407	-7.1411	-66.2842	-5.9814	-17.5232	-66.7749	-95.5481	41.9100	-217	-110	327 
39.654	1.1470	-0.0474	0.0703	-12.6953	-28.5645	2.6245	-20.2753	-71.7847	-93.5486	41.9000	-204	-117	344 
39.717	0.9590	-0.1377	0.3193	-3.1738	-6.7139	13.4277	-24.2029	-72.0978	-89.8846	41.9000	-195	-119	348 
40.013	0.9189	-0.1221	0.2715	0.6714	8.8501	-0.6714	-26.3892	-71.9275	-87.5171	41.8900	-197	-117	351 
40.029	0.9155	0.0176	0.2729	-7.4463	10.6201	29.1138	-25.1862	-70.8069	-88.4180	41.9200	-197	-116	352 
40.029	0.8965	-0.0781	0.4302	-6.2256	16.5405	-0.1221	-26.4990	-68.7140	-87.4072	41.9000	-202	-112	345 
40.295	0.8208	-0.1074	0.4688	-1.3428	9.4604	-1.4648	-24.8785	-66.7365	-88.6761	41.8900	-204	-112	340 
40.404	0.8843	-0.1060	0.3901	-1.2207	-10.3760	-5.1880	-23.7799	-66.6705	-89.5331	41.9000	-208	-110	340 
40.498	0.9780	-0.1387	0.2969	0.6714	-9.8877	-0.7935	-24.5050	-67.8461	-88.5718	41.8900	-202	-113	340 
40.685	0.9526	-0.1313	0.3125	0.3662	1.4038	-0.7324	-24.5215	-68.2965	-88.2587	41.9300	-204	-114	341 
40.936	0.9155	-0.1240	0.3848	0.6104	6.2256	0.6714	-23.8403	-67.8955	-88.6816	41.8900	-207	-115	341 
40.936	0.9067	-0.1338	0.3926	-0.9766	1.5259	0.6714	-23.3679	-67.4780	-88.9233	41.9000	-205	-113	341 
40.952	0.9224	-0.1416	0.3667	-1.1597	-3.4790	-0.3662	-23.5272	-67.5110	-88.5883	41.9200	-208	-110	340 
40.952	0.9453	-0.1392	0.3394	-0.3052	-2.1973	1.2207	-23.8074	-67.8406	-88.1158	41.9300	-206	-111	344 
40.952	0.9487	-0.1284	0.3560	0.1221	6.5918	3.6621	-24.0710	-67.6483	-87.6379	41.9100	-204	-111	346 
41.030	0.9180	-0.1289	0.3911	-4.7607	3.0518	-1.7700	-23.7854	-66.9891	-87.8577	41.9200	-204	-110	339 
41.202	0.9180	-0.1289	0.3911	-4.7607	3.0518	-1.7700	-23.9172	-67.0386	-87.7313	41.9000	-207	-111	339 
41.202	0.8174	-0.1772	0.5146	7.8735	-51.8188	-1.7700	-27.0264	-69.6918	-84.0839	41.9400	-203	-115	346 
41.202	0.8174	-0.1772	0.5146	4.2725	7.8735	23.8647	-40.0397	-72.5592	-69.8676	41.9300	-187	-110	359 
41.358	1.0601	-0.2393	0.1465	12.8174	40.7104	-15.9302	-34.1730	-69.7467	-75.3442	41.9200	-189	-106	355 
41.421	0.8853	-0.0630	0.3608	10.8643	80.5054	-13.3057	-22.0605	-65.7806	-87.1271	41.9200	-203	-107	340 
41.530	0.5747	-0.1025	0.4946	8.5449	75.0122	0.8545	-14.6118	-58.5791	-94.2352	41.9200	-221	-107	318 
41.608	0.5635	-0.0386	0.7158	6.8359	73.7915	-4.4556	-10.5304	-51.2183	-98.0859	41.9400	-235	-103	292 
41.764	0.5698	-0.1299	0.7700	11.5356	69.0918	2.6245	-8.1134	-44.4067	-99.7888	41.9300	-247	-100	269 
41.999	0.5728	-0.0679	0.7988	13.0005	81.9092	-6.5308	-5.6635	-37.4414	-101.7114	41.9200	-249	-98	244 
42.092	0.4932	0.0098	0.8652	10.3149	75.1343	-7.6904	-3.4497	-29.7620	-103.6230	41.9200	-250	-99	222 
42.249	0.4077	-0.0054	0.9043	8.4839	63.4155	-3.9063	-1.9391	-22.9175	-104.7052	41.9300	-248	-102	195 
42.342	0.2954	0.0381	0.9785	6.8970	54.5044	-5.0659	-0.7251	-16.9299	-105.8258	41.9400	-244	-106	178 
42.467	0.1528	-0.0049	0.9521	4.7607	58.8989	-9.7046	-0.1154	-11.5906	-106.7871	41.9400	-240	-107	155 
42.624	-0.0156	0.0776	1.0410	3.4790	55.4810	2.6245	0.7690	-5.6470	-107.9791	41.9800	-237	-113	137 
42.639	-0.0981	0.0737	1.0000	2.3804	43.5181	3.7842	1.0876	-0.3845	-108.1274	41.9600	-226	-111	122 
42.639	-0.0708	0.0420	1.0542	-1.5259	30.8228	-2.1362	1.3074	3.5870	-108.4790	41.9600	-220	-106	109 
42.702	-0.1357	0.0459	1.0186	1.7700	19.1650	3.4180	1.4996	5.9052	-108.7811	41.9600	-213	-105	102 
42.843	-0.1870	0.0298	0.9912	1.2817	7.4463	0.6714	1.6754	7.4048	-109.3085	41.9600	-207	-109	102 
43.093	-0.1577	0.0518	0.9985	1.2207	4.2725	-1.7090	1.9061	8.0914	-110.0336	41.9800	-204	-110	98 
43.171	-0.1328	0.0605	0.9971	-0.4883	-1.3428	-1.5259	1.9885	8.2068	-110.8356	41.9800	-204	-108	96 
43.296	-0.1309	0.0493	0.9976	-0.9766	-4.9438	-0.1221	1.9556	7.7399	-111.4673	41.9800	-202	-110	94 
43.296	-0.0898	0.0400	1.0083	-1.3428	-6.5918	1.1597	1.9116	7.0862	-111.9067	41.9800	-209	-110	98 
43.358	-0.0874	0.0356	0.9966	-1.5259	-11.6577	3.2959	1.7963	6.0535	-112.1869	42.0000	-210	-111	101 
43.468	-0.1465	0.0620	1.0151	-0.7324	-10.8032	4.1504	1.8896	5.3613	-112.2748	42.0300	-207	-111	102 
43.530	-0.1343	0.0532	1.0225	-3.0518	-31.3721	4.5166	1.8292	3.4607	-112.3572	42.0200	-213	-109	104 
43.608	-0.0781	0.0610	1.0508	-7.3853	-50.5371	4.3335	1.4172	-0.4230	-112.4341	42.0300	-220	-106	115 
43.655	0.0669	0.0361	1.0156	-15.0146	-67.6270	5.1880	0.3790	-6.4545	-112.2913	42.0200	-234	-106	126 
43.796	0.1719	-0.0146	0.9775	-13.3667	-72.0825	7.6904	-1.2524	-13.5352	-111.6980	42.0300	-240	-102	146 
43.890	0.2485	0.0386	0.9473	-18.0664	-89.7827	2.3193	-2.7576	-21.3904	-110.8026	42.0200	-249	-99	174 
44.046	0.4141	-0.0381	0.8672	-20.0806	-92.0410	7.8735	-5.1471	-30.3552	-109.2920	42.0500	-251	-94	204 
44.155	0.5298	-0.0791	0.7246	-21.9727	-108.5815	12.6343	-8.8165	-39.9957	-106.2762	42.0500	-251	-97	238 
44.640	0.7388	-0.1758	0.5518	-23.6206	-129.0283	12.8174	-14.7052	-51.3501	-100.6073	42.0400	-243	-98	274 
44.640	1.0151	-0.2266	0.1245	-23.4985	-124.0234	-5.7983	-25.7245	-63.7372	-90.5713	42.0200	-222	-102	315	1.0151	-0.2266	0.1245	-23.4985	-124.0234	-5.7983	-25.7245	-63.7372	-90.5713	42.0200	-194	-110	352 
44.718	1.0151	-0.2266	0.1245	12.6343	37.7808	-25.6348	-49.3945	-75.4980	-67.1924	42.0300	-174	-113	370 
44.796	0.8848	0.0059	0.3369	6.1646	38.2690	-7.3242	-28.3612	-73.1635	-87.7039	42.0100	-188	-116	361 
44.843	0.8599	-0.0532	0.4858	1.4038	24.3530	1.4038	-21.9617	-70.2356	-93.5925	42.0100	-199	-117	349 
44.843	0.8838	-0.1094	0.4302	-1.2817	-3.7842	-1.4038	-20.4016	-69.0930	-94.8615	42.0200	-201	-119	344 
45.061	0.9692	-0.0947	0.2871	-2.8076	-14.4653	-0.3052	-20.6708	-70.1971	-94.3396	42.0100	-202	-120	341 
45.233	0.9702	-0.1294	0.2490	-0.6714	-2.1362	-0.1831	-21.8024	-71.2024	-93.1091	42.0100	-199	-122	349 
45.343	0.9653	-0.1221	0.2871	-0.4883	7.3242	2.0142	-22.1649	-71.0870	-92.4939	42.0200	-198	-122	353 
45.343	0.9302	-0.0991	0.3501	1.0376	6.8970	0.1831	-21.4124	-70.3784	-92.9059	42.0400	-199	-119	350 
45.436	0.9209	-0.0889	0.3594	0.0610	-3.2349	-0.2441	-20.6323	-70.0488	-93.2849	42.0400	-201	-119	344 
45.718	0.9443	-0.0996	0.3135	-1.6479	-4.8828	-0.0610	-20.7971	-70.4883	-92.8894	42.0400	-204	-124	348 
45.718	0.9717	-0.1118	0.2798	-0.7935	-0.7324	0.6104	-21.3190	-70.9058	-92.2083	42.0400	-199	-120	348 
45.718	0.9497	-0.1069	0.3076	-0.1831	2.7466	0.9155	-21.3409	-70.7849	-91.9611	42.0400	-200	-120	352 
45.780	0.9263	-0.1011	0.3452	0.2441	0.3052	1.6479	-21.2036	-70.4608	-91.8457	42.0600	-203	-121	347 
46.046	0.9531	-0.1055	0.3223	-0.1831	-3.6621	2.5635	-21.7035	-70.5048	-91.0272	42.0500	-200	-120	346 
46.140	0.9570	-0.1143	0.2988	-0.4272	-1.7090	-0.9155	-22.2144	-70.7849	-90.3296	42.0500	-197	-117	349 
46.311	0.9590	-0.1069	0.2969	-0.0610	0.6714	0.4883	-22.2968	-70.8453	-90.0439	42.0500	-195	-119	348 
46.327	0.9370	-0.1055	0.3350	-0.0610	2.6855	0.4272	-22.1100	-70.5981	-90.0604	42.0500	-198	-120	349 
46.405	0.9512	-0.1060	0.3145	-0.6104	1.4038	1.4038	-22.1210	-70.4883	-89.8737	42.0700	-201	-118	348 
46.593	0.9536	-0.1167	0.3120	-0.1221	-0.4883	0.3662	-22.1210	-70.4059	-89.7418	42.0800	-203	-123	349 
46.686	0.9473	-0.1113	0.3247	1.8921	-4.0894	1.8921	-22.0111	-70.3729	-89.6320	42.0800	-202	-121	349 
46.785	0.9131	-0.1201	0.3511	0.4883	1.2207	-1.0986	-21.7749	-70.4938	-89.5276	42.0700	-197	-117	345 
46.801	1.0723	-0.0640	0.2959	-1.7090	-15.1978	13.9160	-19.3634	-72.1857	-91.9885	42.0800	-199	-121	350 
47.036 
47.051	1.1431	-0.1528	-0.0020	7.0190	44.6777	-6.2866	-31.3770	-70.9167	-78.2062	42.1100	-191	-113	354 
47.332	0.9102	-0.0562	0.3213	10.3149	76.7822	-9.3994	-21.2146	-66.4014	-88.0994	42.1100	-205	-109	344 
47.442	0.7720	-0.1406	0.4492	16.1133	83.8013	5.3101	-14.2383	-59.0680	-94.3121	42.0900	-220	-107	322 
47.520	0.5430	-0.1646	0.6499	10.7422	79.8950	-4.8218	-9.9316	-51.3281	-97.5586	42.1200	-235	-106	294 
47.707	0.6743	-0.0308	0.7295	8.0566	75.6226	-7.3853	-6.2622	-44.9396	-101.0907	42.1300	-245	-104	268 
48.067	0.6348	-0.0366	0.7520	7.1411	73.6694	-6.5308	-4.2462	-38.4906	-102.7057	42.1200	-250	-106	249 
48.067	0.4995	-0.0063	0.8379	5.4321	67.2607	-7.5684	-2.7411	-31.2341	-104.1504	42.1300	-253	-105	221 
48.067	0.4043	0.0264	0.9038	9.0332	58.7769	-5.7983	-1.2140	-24.6863	-105.4852	42.1300	-253	-106	201 
48.067	0.2910	-0.0083	0.9546	8.3618	61.1572	-6.6528	-0.1593	-18.5120	-106.3477	42.1300	-252	-108	182 
48.067	0.1631	0.0142	1.0146	8.1787	59.4482	-6.4087	0.7526	-12.4530	-107.3694	42.1400	-247	-110	161 
48.067	0.0732	0.0947	0.9863	6.2866	44.7998	-7.0801	1.7139	-7.2345	-108.1384	42.1500	-239	-112	140 
48.129	0.0020	0.0347	1.0278	3.7231	33.9966	3.4180	2.5214	-3.2355	-108.4076	42.1500	-232	-115	128 
48.129	-0.0557	0.0835	1.0132	0.3052	19.6533	4.0283	2.6642	-0.3900	-108.7921	42.1500	-224	-114	121 
48.332	-0.1265	0.0786	1.0190	1.1597	14.0381	0.2441	2.9663	1.6315	-109.2371	42.1400	-226	-116	115 
48.614	-0.0801	0.0654	1.0347	-0.1221	4.8218	-0.7324	2.9993	2.8015	-109.9896	42.1600	-218	-115	110 
48.739	-0.0352	0.0752	0.9985	-1.3428	-6.5308	-0.9766	2.9773	2.5708	-110.6543	42.1600	-216	-113	108 
48.739	-0.0371	0.0640	1.0034	-0.9766	-8.6670	0.3052	2.9224	1.8512	-111.1926	42.1500	-221	-115	110 
48.754	-0.0020	0.0771	1.0156	-0.3662	-10.7422	1.9531	2.8894	0.8624	-111.6046	42.1700	-224	-115	113 
48.817	0.0234	0.0557	1.0073	-3.2959	-21.2402	4.5776	2.7795	-0.7910	-111.7419	42.1700	-227	-114	113 
48.911	0.0029	0.0796	1.0210	-5.3711	-25.2075	4.3335	2.4170	-2.9773	-111.7035	42.1900	-229	-113	120 
48.911	0.0508	0.0522	1.0166	-8.3008	-40.5884	6.3477	1.8292	-6.0645	-111.6541	42.1900	-231	-112	129 
49.051	0.0957	0.0444	1.0293	-15.7471	-50.2319	2.8076	0.6152	-10.4645	-111.5717	42.1700	-238	-110	141 
49.114	0.2622	0.0151	0.9443	-11.6577	-63.7207	4.3335	-0.8405	-16.1774	-111.0883	42.1800	-246	-106	159 
49.270	0.3286	-0.0483	0.9663	-13.7939	-73.4863	5.4321	-2.0709	-22.3572	-110.3577	42.1900	-250	-102	176 
49.332	0.4194	-0.0439	0.9233	-12.3291	-82.8857	7.0801	-3.9496	-29.6741	-108.9459	42.1600	-256	-100	205 
49.489	0.5601	-0.0723	0.7192	-11.6577	-96.8018	6.8970	-6.1523	-38.6938	-107.0453	42.1900	-255	-100	233 
49.567	0.6958	-0.1377	0.6226	-14.8315	-101.6235	5.6152	-9.2780	-48.1915	-103.9197	42.1700	-244	-102	264 
49.676	0.8779	-0.0938	0.3535	-16.9678	-108.5815	9.8877	-14.7382	-58.4583	-98.8440	42.1900	-231	-103	295 
49.739	1.0400	-0.1724	0.2212	-21.4844	-83.1909	-6.2866	-24.2743	-68.0768	-89.8682	42.1800	-212	-110	335 
49.919	1.1523	-0.2056	-0.1118	0.4883	-31.1279	-2.8076	-37.0349	-74.7620	-77.8766	42.1900	-192	-114	354 
49.919	0.8335	-0.1035	0.3545	4.4556	4.0894	-11.5967	-36.4636	-74.9158	-77.7612	42.1900	-184	-116	366 
50.059	0.9893	-0.1646	0.1040	5.4321	40.7715	10.4980	-36.1176	-74.8993	-77.5635	42.1700	-184	-115	365 
50.122	0.8955	-0.1416	0.2983	2.5024	29.5410	-1.8311	-31.4978	-72.3340	-81.8042	42.1900	-191	-113	356 
50.325	0.9111	-0.1313	0.4087	2.3804	6.9580	7.8125	-27.8888	-70.2905	-84.8364	42.1900	-195	-110	349 
50.528	0.8979	-0.1270	0.3647	-2.3193	-4.2725	-2.6245	-27.5702	-69.9829	-84.9298	42.1700	-196	-110	347 
50.590	0.9971	-0.1528	0.2471	-2.3193	-5.3711	-1.6479	-28.0042	-70.7629	-84.4849	42.1600	-194	-109	349 
50.731	0.9609	-0.1436	0.2617	-1.2817	1.3428	-2.3804	-28.5425	-71.0706	-83.8916	42.1500	-198	-112	352 
50.809	0.9629	-0.1289	0.2871	0.0610	4.0283	0.0000	-27.8503	-70.9552	-84.4739	42.1700	-193	-114	349 
50.965	0.9326	-0.1104	0.3291	-0.4272	0.2441	0.0000	-27.1637	-70.5597	-84.8969	42.1600	-195	-111	349 
51.044	0.9341	-0.1313	0.3252	-0.6104	-2.2583	0.8545	-26.9824	-70.5322	-84.8804	42.1700	-199	-113	347 
51.184	0.9531	-0.1436	0.2900	-1.1597	-2.0752	0.6104	-27.4988	-70.7794	-84.2487	42.1700	-196	-118	350 
51.184	0.9531	-0.1426	0.2954	0.0000	-1.8921	2.5635	-28.0646	-70.8783	-83.5510	42.1800	-198	-113	350 
51.465	0.9351	-0.1401	0.3105	-1.0376	0.4272	-0.4272	-27.9822	-70.9003	-83.5400	42.1900	-192	-116	351 
51.481	0.9497	-0.1328	0.3081	-0.1221	-0.6714	0.3662	-27.9932	-70.8838	-83.3917	42.1800	-196	-114	350 
51.559	0.9604	-0.1304	0.2832	-0.2441	-2.9297	0.6714	-28.1030	-71.0431	-83.1445	42.1900	-196	-114	352 
51.747	0.9253	-0.1196	0.3027	0.9766	-9.0942	-2.3193	-28.3777	-71.4276	-82.5952	42.1900	-196	-113	352 
51.762	0.9063	-0.1353	0.2808	2.3804	-2.0752	-8.6060	-26.9385	-72.2516	-83.8806	42.2100	-194	-117	353 
51.984	0.9561	-0.3701	0.3516	4.8828	46.0205	13.8550	-37.2327	-74.5477	-73.3447	42.2000	-186	-117	361 
51.984	0.9912	-0.0405	0.2456	2.4414	60.7300	-9.4604	-26.5814	-70.8124	-83.7543	42.2000	-193	-114	352 
52.156	0.8848	-0.1812	0.4126	6.8970	82.5806	-7.9346	-19.0503	-64.8413	-91.2854	42.1900	-209	-110	335 
52.156	0.8652	-0.1724	0.4941	6.5308	80.2002	-12.0239	-12.6123	-57.4200	-97.8662	42.2200	-226	-110	312 
52.250	0.7358	0.0361	0.6948	3.5400	75.2563	-2.7466	-7.7179	-49.5648	-102.9529	42.2200	-243	-113	289 
52.328	0.7271	-0.0479	0.6758	1.2207	64.3921	0.0000	-6.2073	-42.6984	-104.3866	42.2300	-247	-113	263 
52.391	0.5259	-0.0820	0.8062	5.4321	77.4536	-1.3428	-5.3064	-35.3705	-105.2051	42.2300	-250	-108	240 
52.578	0.4067	-0.0308	0.8838	9.2773	72.0215	-1.9531	-3.9661	-27.8009	-106.2158	42.2200	-249	-108	216 
52.687	0.3433	-0.0483	0.9858	9.7656	60.5469	0.2441	-2.6642	-20.8301	-106.9135	42.2300	-249	-110	189 
52.984	0.2646	-0.0562	0.9272	9.7046	60.5469	-5.4932	-1.7413	-15.0458	-107.5671	42.2400	-243	-110	172 
53.062	0.1191	0.0415	0.9771	10.0098	59.6924	-2.8687	-0.4285	-8.8385	-108.6383	42.2300	-243	-112	150 
53.234	-0.0449	0.0229	1.0356	18.1274	54.0161	-6.4697	1.0107	-2.7466	-109.1492	42.2200	-235	-115	129 
53.234	-0.0854	0.1226	0.9971	12.3291	36.2549	-4.9438	2.8400	1.9336	-110.0720	42.2300	-225	-117	118 
53.234	-0.1714	0.0952	1.0083	4.5166	27.7100	3.8452	3.9716	5.2899	-110.5609	42.2200	-217	-123	108 
53.344	-0.2051	0.0591	0.9976	6.5918	25.3296	-4.8828	4.4550	8.0475	-111.2750	42.2300	-211	-123	95 
53.531	-0.2129	0.1138	0.9995	5.6152	9.5215	0.8545	5.0977	9.9756	-112.1045	42.2300	-207	-125	94 
53.609	-0.1777	0.1392	0.9902	2.1362	-4.8218	1.5259	5.6305	10.0580	-112.8790	42.2700	-205	-128	90 
53.609	-0.1704	0.1318	0.9995	-2.8687	-15.4419	3.9673	5.7568	9.0472	-113.4998	42.2500	-205	-129	89 
53.609	-0.1445	0.1201	0.9995	-6.4087	-25.0244	6.2256	5.4163	7.0532	-113.9557	42.2700	-211	-129	95 
53.703	-0.1118	0.1021	1.0044	-9.4604	-38.1470	10.6812	4.7791	4.0375	-114.1040	42.2700	-215	-125	104 
53.781	-0.0498	0.1011	1.0220	-13.4277	-41.3208	8.0566	3.7024	0.0439	-113.9063	42.2600	-225	-121	110 
53.781	0.0425	0.0791	1.0132	-17.0898	-55.2979	5.1270	2.3126	-4.9109	-113.7195	42.2800	-234	-114	120 
53.938	0.1104	-0.0083	1.0347	-15.8691	-70.6177	11.5967	0.4449	-10.8765	-113.2306	42.2800	-241	-110	135 
54.094	0.2197	0.0112	0.8730	-17.2119	-92.0410	17.3950	-1.6699	-18.8635	-111.6925	42.2900	-247	-102	161 
54.141	0.4082	-0.0581	0.7407	-18.8599	-96.7407	6.4087	-4.0210	-27.9987	-109.6326	42.3100	-253	-97	197 
54.172	0.5195	-0.0488	0.8564	-16.0522	-99.0601	1.0376	-6.5808	-36.6394	-107.7045	42.3000	-254	-96	228 
54.375	0.6772	-0.0581	0.5972	-13.4277	-116.6992	10.4370	-9.9316	-47.4829	-104.5679	42.3100	-246	-99	258 
54.469	0.9253	-0.1895	0.2754	-19.9585	-139.8926	19.4702	-17.7814	-59.8700	-96.5753	42.2800	-232	-99	303 
54.818	1.2212	-0.1577	-0.0527	1.0376	6.4697	-19.7754	-54.5306	-77.6349	-61.4301	42.2800	-176	-116	368 
54.943	0.9478	-0.1416	0.1631	6.5308	43.2739	-2.1973	-46.0052	-75.8881	-69.4336	42.2600	-175	-116	370 
55.224	0.9258	-0.1636	0.3345	6.3477	21.4233	0.7324	-35.5737	-73.7018	-79.0631	42.2700	-183	-116	365 
55.334	0.8799	-0.1060	0.4033	4.7607	9.5825	6.8970	-32.3877	-71.7078	-81.1780	42.2800	-187	-114	357 
55.334	0.9131	-0.1494	0.3359	-1.5869	-9.2163	0.4272	-32.6514	-71.4880	-80.5353	42.2500	-190	-111	352 
55.334	1.0039	-0.1611	0.1958	-4.2114	-9.2163	-2.8076	-34.2664	-72.5647	-78.9038	42.2500	-189	-109	357 
55.443	0.9868	-0.1758	0.1934	-3.7842	-0.7935	-3.1738	-34.8212	-73.2404	-78.5577	42.2500	-189	-113	359 
55.631	0.9688	-0.1445	0.2437	-0.1831	6.2866	-0.8545	-33.8708	-73.1635	-79.5135	42.2500	-186	-112	356 
55.631	0.9502	-0.1123	0.2813	1.2817	-1.3428	0.7324	-32.5854	-72.8174	-80.4474	42.2500	-191	-114	354 
55.631	0.9507	-0.1323	0.2769	-1.3428	-1.4648	2.9907	-32.6404	-72.7954	-80.1068	42.2500	-189	-118	356 
55.709	0.9712	-0.1494	0.2407	-0.4272	-2.3193	1.6479	-33.6786	-72.9382	-78.9093	42.2500	-187	-115	358 
56.052	0.9692	-0.1606	0.2349	-0.9155	0.5493	1.1597	-34.2554	-72.9987	-78.1512	42.2800	-189	-115	358 
56.162	0.9390	-0.1665	0.2490	-0.7935	0.6104	0.1831	-34.1455	-72.8339	-78.2336	42.2700	-192	-114	356 
56.349	0.9458	-0.0786	0.2930	-2.9297	-10.3760	-11.9019	-33.1512	-73.4766	-79.0961	42.2700	-187	-113	361 
56.349	-0.4966	0.7783	2.1514	46.8140	160.9497	-3.6011	-20.0940	-72.7734	-94.2517	42.2800	-184	-117	363 
56.568	1.0547	-0.1401	0.1221	5.1880	65.0024	-8.9722	-32.2833	-71.6968	-79.4971	42.2800	-184	-111	353 
56.568	0.9800	-0.1738	0.3164	15.6860	86.7310	-6.5918	-21.1212	-65.4895	-90.2417	42.2800	-201	-105	341 
56.803	0.7646	-0.0918	0.4888	13.4277	88.6841	-6.6528	-12.5079	-57.8485	-98.2837	42.2800	-223	-110	316 
56.912	0.6440	-0.1616	0.5850	9.0942	86.2427	-2.9297	-7.5586	-49.8175	-102.5079	42.3100	-236	-108	288 
57.147	0.6411	0.0420	0.7275	6.1646	78.0029	-6.6528	-4.3506	-42.6929	-105.7214	42.3100	-246	-107	264 
57.162	0.5854	0.0000	0.7573	12.5732	79.9561	2.1362	-2.5049	-35.4694	-106.6278	42.3100	-249	-108	237 
57.225	0.4048	-0.0015	0.8770	8.1177	76.2329	-2.0752	-1.2689	-27.0209	-107.2925	42.3100	-250	-104	208 
57.303	0.3457	0.0181	0.9092	9.5825	69.5190	1.4038	-0.1593	-19.6106	-107.6605	42.3300	-246	-109	186 
57.303	0.1841	0.0239	1.0005	13.4277	63.2324	1.2207	0.9119	-12.4805	-107.9572	42.3100	-242	-111	162 
57.350	0.0918	-0.0425	0.9907	8.3008	57.0679	0.4883	1.9446	-6.7126	-107.7594	42.3200	-239	-109	142 
57.459	-0.0376	0.1279	1.0083	5.4932	50.2930	-2.1362	2.6587	-0.9009	-108.2977	42.3000	-227	-114	124 
57.662	-0.1123	0.0376	1.0254	3.4790	33.5083	-7.9956	3.2410	3.3673	-109.1437	42.3400	-220	-113	113 
57.678	-0.2246	0.0986	0.9907	-3.3569	22.2778	-8.9111	3.3014	6.2183	-110.4950	42.3200	-214	-115	104 
57.912	-0.2393	0.0903	0.9819	-7.4463	9.2773	-4.6997	2.9883	8.3276	-111.8903	42.3400	-209	-113	95 
57.991	-0.1851	0.0459	1.0352	-7.5684	-1.0986	-2.6245	2.2577	9.1296	-112.8571	42.3300	-205	-115	92 
58.194	-0.1509	0.0415	0.9995	-7.3853	-10.0098	0.6104	1.5546	8.3716	-113.4888	42.3400	-208	-112	97 
58.303	-0.1206	0.0303	1.0015	-9.0942	-11.9629	1.0986	0.7471	7.1246	-113.8074	42.3400	-208	-108	100 
58.569	-0.1094	-0.0034	1.0146	-8.0566	-17.3340	6.4087	0.0000	5.6250	-113.7964	42.3400	-210	-109	101 
58.678	-0.0527	-0.0029	0.9932	-1.6479	-10.8643	2.2583	-0.5988	3.9880	-113.6151	42.3400	-219	-107	106 
58.850	-0.0024	-0.0127	1.0112	-0.1831	-11.9629	0.3052	-0.6702	2.6807	-113.5602	42.3700	-222	-105	109 
58.897	-0.0205	-0.0015	0.9976	2.1362	-8.8501	1.0986	-0.5548	1.5106	-113.5217	42.3600	-221	-107	115 
58.897	-0.0103	0.0005	0.9927	1.9531	-5.2490	-0.4883	-0.3241	0.7910	-113.5767	42.3700	-227	-104	115 
58.897	-0.0015	0.0088	0.9985	2.9907	0.5493	0.4272	-0.0494	0.6262	-113.7250	42.3800	-222	-105	115 
58.897	0.0112	0.0244	1.0049	3.9063	4.0283	1.2817	0.3076	0.7141	-113.7634	42.3800	-223	-107	113 
58.897	-0.0083	0.0186	0.9771	8.0566	7.9346	7.2021	1.0602	1.1371	-113.4998	42.3800	-223	-108	114 
58.897	-0.0596	0.0757	1.0122	5.7983	9.1553	4.3945	1.7468	2.0380	-113.1097	42.3900	-221	-108	112 
58.991	-0.0205	0.0020	1.0063	-0.6714	-0.4272	5.9814	2.0490	2.3895	-112.7087	42.4000	-218	-109	109 
59.037	-0.0649	0.0571	0.9893	0.1221	2.9297	-0.7324	2.2632	2.6257	-112.8076	42.4100	-215	-106	113 
59.100	-0.0596	0.0327	0.9917	-0.3052	5.5542	-2.6855	2.1588	3.0597	-113.2581	42.4200	-215	-105	112 
59.256	-0.0649	0.0591	0.9912	0.4272	-0.1221	-0.7935	2.2687	3.3014	-113.6481	42.4300	-217	-104	105 
59.319	-0.0630	0.0625	1.0044	-1.0376	0.4883	-0.3662	2.3016	3.3948	-113.9886	42.4200	-217	-109	106 
59.412	-0.0459	0.0542	1.0029	-1.9531	-0.9155	0.4883	2.1808	3.2574	-114.2358	42.4300	-216	-107	107 
59.491	-0.0552	0.0415	0.9956	-1.4648	-1.5869	1.1597	2.0435	3.0872	-114.3567	42.4200	-218	-109	108 
59.907	-0.0532	0.0371	1.0005	-0.2441	-0.9155	1.4648	1.9775	2.9938	-114.4611	42.4300	-218	-109	108 
59.922	-0.0610	0.0483	1.0049	0.3052	-0.3052	0.5493	2.0160	2.9388	-114.6149	42.4400	-216	-110	106 
60.047	-0.0576	0.0518	0.9907	0.0000	-1.4648	0.1221	2.0764	2.8125	-114.8346	42.4400	-218	-109	105 
60.063	-0.0532	0.0459	1.0151	0.2441	-5.6763	1.8921	2.1204	2.5269	-114.9939	42.4700	-218	-111	107 
60.188	-0.0225	0.0557	0.9858	-0.7935	-4.3335	1.7090	2.1643	1.9171	-115.0269	42.4500	-218	-105	108 
60.188	-0.0308	0.0483	0.9995	-1.9531	0.3662	0.1221	2.0764	1.7578	-115.0818	42.4600	-219	-106	113 
60.329	-0.0425	0.0420	1.0034	-1.7090	0.0610	0.3052	1.9391	1.7523	-115.1532	42.4600	-220	-108	111 
60.407	-0.0313	0.0439	1.0005	-1.0986	-1.7090	0.0610	1.8457	1.6754	-115.2905	42.4800	-220	-106	112 
60.688	-0.0313	0.0396	1.0034	-0.5493	-0.4272	0.3662	1.8127	1.5820	-115.4169	42.4800	-219	-110	112 
60.704	-0.0298	0.0449	0.9980	-1.0376	-1.0986	0.2441	1.7853	1.5381	-115.5212	42.4800	-220	-109	112 
60.782	-0.0156	0.0415	0.9878	-3.3569	-1.6479	-0.4883	1.6150	1.3733	-115.6696	42.4800	-221	-111	109 
60.782	-0.0283	0.0303	1.0054	-2.1362	-0.4883	-0.7935	1.3843	1.4117	-115.8398	42.4900	-219	-107	111 
60.891	-0.0308	0.0264	1.0044	-1.0986	-0.5493	0.7324	1.2305	1.3513	-115.8563	42.4800	-220	-104	112 
60.969	-0.0283	0.0366	1.0000	-0.3662	-1.0986	0.4272	1.1975	1.2964	-115.8289	42.5200	-217	-110	112 
61.126	-0.0225	0.0322	0.9980	-0.3662	-0.9155	0.1221	1.2030	1.2085	-115.9003	42.5000	-222	-109	112 
61.235	-0.0273	0.0327	1.0029	-0.4883	-0.7324	0.4883	1.2030	1.1646	-115.9607	42.5100	-218	-109	113 
61.344	-0.0215	0.0356	0.9941	-0.3662	-0.9155	0.6714	1.2085	1.0767	-115.9827	42.5300	-220	-107	115 
61.438	-0.0210	0.0317	0.9990	-0.4272	-0.9155	0.6714	1.2085	0.9998	-115.9717	42.5200	-220	-108	110 
61.438	-0.0205	0.0308	1.0005	-0.2441	-0.3662	0.4272	1.2085	0.9338	-116.0046	42.5300	-223	-108	114 
61.641	-0.0181	0.0332	1.0000	-0.3052	0.1221	0.6104	1.2195	0.9174	-116.0101	42.5400	-223	-109	114 
61.719	-0.0205	0.0327	1.0020	-0.4272	0.6104	0.6714	1.2360	0.9558	-116.0046	42.5500	-222	-109	115 
61.735	-0.0171	0.0386	0.9976	-1.1597	-1.2817	0.0000	1.2140	0.9668	-116.0376	42.5300	-216	-108	111 
61.891	-0.0210	0.0225	1.0054	-0.4272	1.7090	0.1831	1.1426	1.0217	-116.1420	42.5400	-220	-107	113 
62.001	-0.0317	0.0347	1.0000	0.3662	-0.5493	1.4648	1.1700	1.1041	-116.0651	42.5500	-219	-107	109 
62.047	-0.0190	0.0332	0.9995	-0.4272	0.3662	0.4883	1.2030	1.1096	-116.0870	42.5500	-221	-109	111 
62.141	-0.0244	0.0308	0.9990	-0.2441	0.8545	0.8545	1.2085	1.1810	-116.0760	42.5700	-225	-108	113 
62.266	-0.0225	0.0366	0.9976	-0.0610	1.6479	1.2207	1.2469	1.3293	-116.0321	42.5800	-219	-108	110 
62.313	-0.0361	0.0366	1.0054	-0.1831	1.6479	1.2817	1.2799	1.5216	-115.9662	42.5800	-219	-108	113 
62.485	-0.0347	0.0322	0.9980	-0.2441	0.7935	0.6714	1.2854	1.6370	-115.9387	42.5800	-221	-105	111 
62.547	-0.0420	0.0352	1.0054	-0.3662	1.2207	0.8545	1.2964	1.7413	-115.9552	42.5900	-222	-109	110 
62.657	-0.0332	0.0376	0.9922	-0.2441	-0.1221	0.9766	1.2964	1.7743	-115.9552	42.5900	-215	-106	112 
62.751	-0.0420	0.0327	1.0010	-0.3662	0.0000	0.7324	1.3019	1.8073	-115.9937	42.5900	-214	-107	115 
63.126