13 steps
StartTime: 2017-07-06 15:43:23.667
Time(s)	ax(g)	ay(g)	az(g)	wx(deg/s)	wy(deg/s)	wz(deg/s)	AngleX(deg)	AngleY(deg)	AngleZ(deg)	T(°)	hx	hy	hz 
3.612	-0.1880	-0.0645	0.9819	-0.6104	-0.3052	0.7324	-4.0100	10.7172	-168.4534	41.3800	-77	-295	110 
3.737	-0.1807	-0.0654	0.9824	-0.9155	-0.6714	0.8545	-4.0869	10.6567	-168.4918	41.3800	-75	-298	106 
3.909	-0.1812	-0.0713	0.9780	-0.6714	-1.6479	1.7090	-4.1309	10.5853	-168.4314	41.4100	-77	-297	105 
3.956	-0.1855	-0.0723	0.9883	-0.3052	0.2441	0.2441	-4.1638	10.6238	-168.3875	41.4100	-78	-291	106 
4.065	-0.1787	-0.0737	0.9780	-0.5493	-1.4038	1.1597	-4.1968	10.5084	-168.3765	41.4200	-79	-297	103 
4.097	-0.1812	-0.0679	0.9844	-0.4272	-1.4038	0.7935	-4.2517	10.3766	-168.3765	41.4200	-79	-296	106 
4.331	-0.1782	-0.0723	0.9849	-0.5493	-1.0986	1.2207	-4.2737	10.2393	-168.2886	41.4200	-79	-295	103 
4.362	-0.1758	-0.0757	0.9819	0.1831	-0.7935	0.3662	-4.2902	10.1404	-168.2666	41.4300	-77	-296	106 
4.362	-0.1787	-0.0679	0.9858	-0.4272	-2.0142	0.3662	-4.2847	10.0195	-168.2831	41.4400	-81	-293	108 
4.565	-0.1631	-0.0864	0.9937	0.5493	1.4038	-0.0610	-4.3121	9.9261	-168.2172	41.4600	-80	-294	108 
4.690	-0.1528	-0.0537	1.1367	-2.8687	-12.6953	2.0142	-4.4220	9.4867	-168.2172	41.4800	-79	-289	104 
4.706	0.0337	-0.0708	0.9004	0.0000	-8.3618	17.5781	-3.7958	7.0807	-166.2891	41.4800	-84	-293	103 
4.769	-0.0210	-0.1328	1.0068	-7.3853	-0.1221	-19.9585	-4.5978	6.8060	-166.1627	41.4600	-88	-294	107 
4.894	-0.1509	0.0840	0.8926	-8.5449	-6.4697	-3.3569	-4.9823	6.7017	-166.9043	41.4800	-85	-293	106 
4.972	-0.0562	-0.1714	1.0981	0.9155	1.8921	18.9819	-6.1798	7.1356	-166.4209	41.4800	-83	-288	100 
5.097	-0.0415	-0.1582	0.9243	6.0425	32.4097	15.5029	-5.7404	8.4979	-164.6027	41.4900	-88	-290	101 
5.159	-0.0889	-0.0674	0.8574	8.3618	42.8467	13.1836	-4.8505	12.1014	-163.7238	41.4900	-83	-289	102 
5.284	-0.2549	0.1230	0.9863	-3.5400	84.4116	42.6025	-3.1696	18.1000	-161.5869	41.5100	-75	-289	102 
5.362	-0.2021	-0.5688	0.9287	34.2407	49.1943	-5.0049	-2.0215	24.3842	-159.4226	41.5200	-68	-288	103 
5.534	-0.3521	0.0703	0.9556	38.0249	45.7764	-38.3301	-0.5383	29.2291	-164.4653	41.5000	-46	-298	116 
5.565	-0.2344	-0.2881	1.3369	60.3638	84.2285	-87.7686	1.1096	33.3490	-171.0571	41.5000	-18	-306	128 
5.769	-0.2041	0.5801	1.1035	-1.2817	-18.5547	-30.8228	1.2250	36.5625	-179.4781	41.5100	18	-305	151 
5.769	-0.3579	0.1841	0.8203	-26.1230	37.7197	22.9492	-0.0659	40.1550	-178.9398	41.4900	32	-306	153 
5.909	-0.9995	-0.3682	2.2524	-35.4004	86.2427	7.4463	1.1700	44.1541	-174.4794	41.4400	28	-303	149 
5.972	-0.7588	-0.3018	0.1396	0.3052	-99.9146	-3.7231	-3.5706	37.1503	-177.8137	41.4300	24	-296	143 
6.112	-0.0220	0.2964	-0.1489	40.3442	-90.2710	5.1270	3.2190	38.9630	-178.0280	41.3800	23	-299	142 
6.159	-1.3433	-1.2427	-0.8262	4.8218	134.5215	-124.3896	-0.1099	36.8481	171.6614	41.3300	24	-307	147 
6.315	-1.3433	-1.2427	-0.8262	-42.3584	-95.8862	188.7817	2.5378	42.3743	169.1016	41.3100	55	-309	168 
6.362	-0.5713	-0.1782	-0.0146	-82.6416	-23.8037	-29.2969	-1.7413	42.6544	173.1226	41.2800	35	-311	151 
6.503	-0.5713	-0.1782	-0.0146	-82.6416	-23.8037	-29.2969	0.5878	37.1722	177.9840	41.2300	10	-304	125 
6.565	-0.7046	0.3384	0.7700	17.0898	-74.9512	-50.5981	-3.2520	43.3411	172.6337	41.2500	23	-307	130 
6.737	-0.2773	0.1899	-0.0933	70.9229	-84.9609	28.3813	1.4172	40.4077	171.0626	41.1900	28	-308	128 
6.769 
6.909 
6.956	-0.4395	0.2603	0.0449	-97.3511	-50.5371	19.3481	5.1086	38.8751	174.3420	41.1000	10	-319	130 
7.159	0.5435	-0.0229	-0.8076	-21.2402	-141.7847	42.7246	-0.3076	32.7612	176.0175	41.0700	-27	-300	96 
7.315	-3.5200	-1.2065	4.8164	-32.2876	-20.4468	-178.2227	-1.7688	54.0198	173.4302	41.0700	-26	-296	94 
7.347	-0.4565	0.0283	0.2432	51.0864	-4.0283	-15.5029	-1.0767	40.9406	167.8217	41.0700	-3	-297	91 
7.378	0.2461	0.0205	-0.1416	24.7192	-104.3091	80.4443	7.0697	35.1892	171.0901	41.0300	-12	-312	106 
7.519	-0.5713	-0.0781	-0.9209	-106.8115	222.3511	-201.8433	4.0375	36.1560	166.4044	41.0200	-44	-323	111 
7.597	-0.5713	-0.0781	-0.9209	-106.8115	222.3511	-201.8433	7.2290	38.1171	172.1228	40.9900	-12	-328	117 
7.706	-0.9116	-0.6079	0.2681	-19.9585	-51.0254	-41.5039	4.9768	41.5283	174.7650	40.9800	-51	-316	105 
7.769	-0.3564	0.1543	-0.9243	-10.4980	-3.7231	42.7246	2.8400	30.8661	173.1995	40.9900	-75	-305	100 
7.925	-0.5112	-0.5303	2.2217	-28.5645	-241.3940	19.9585	5.6909	53.1299	177.2040	40.9800	-57	-303	109 
7.987	-0.8257	-0.1377	0.7441	32.3486	11.6577	30.7617	2.1973	45.4944	169.2938	40.9600	-39	-302	106 
8.112	0.3262	-0.2432	-0.3789	10.6812	-146.3013	83.0688	10.0140	38.9081	174.5947	40.9500	-57	-305	109 
8.190	-3.5112	1.5103	2.0342	-95.8252	721.0083	-215.5151	3.0542	51.3281	165.1135	40.9400	-73	-308	119 
8.331	0.2163	-0.4790	0.1133	-25.0244	-3.9063	187.2559	14.1943	48.0103	179.0442	40.9200	-39	-309	120 
8.425	-0.5347	-0.2886	0.0542	-44.4336	-91.7969	-7.0190	10.4919	47.0325	-176.7535	40.9100	-70	-297	112 
8.628	-0.0845	0.5127	-0.5386	-0.4883	-74.2188	-31.4941	8.6407	38.6005	-178.7146	40.9000	-85	-296	105 
8.800	-0.7827	-0.4810	2.1577	12.5732	-165.5273	-48.0957	13.9197	61.3092	-173.9905	40.8900	-53	-300	119 
8.800	-0.6675	-0.2124	0.7539	38.0859	-37.1704	14.9536	7.5201	57.9803	174.5453	40.8700	0	-304	129 
9.034	-0.4058	0.2173	-0.3774	9.5215	-203.3691	48.5229	15.1666	46.0382	176.9238	40.8500	0	-306	139 
9.112	0.3604	-0.7764	0.7490	-90.7593	530.8838	-250.0610	10.3491	48.4222	172.2876	40.8500	-29	-301	132 
9.237	0.3604	-0.7764	0.7490	-90.7593	530.8838	-250.0610	14.3097	54.9811	179.2859	40.8400	15	-291	142 
9.237	-0.7363	-0.4463	-0.2637	0.3052	-99.3042	-6.2866	13.7439	52.0148	179.8572	40.8400	-10	-287	134 
9.284	-0.1460	1.1470	-0.5371	-30.1514	-40.4053	-44.4946	9.6240	46.0822	175.0781	40.8300	-31	-284	120 
9.440	-1.8550	-0.9404	3.8984	19.0430	-114.5630	-41.4429	21.5497	68.7085	-167.7502	40.8200	-15	-282	125 
9.503	-0.6201	0.5049	1.1807	-7.7515	-22.0337	10.3149	11.6565	58.5901	175.6934	40.8100	6	-276	126 
9.690	-0.5010	-0.1123	-0.5093	50.5981	-175.2319	-24.8413	14.9854	45.2472	175.0891	40.8100	-18	-278	124 
9.940	0.1162	-0.4092	-0.6069	-76.2939	156.1279	-21.1182	12.8760	44.4177	171.9086	40.8000	-49	-288	117 
10.019	-0.6436	-0.0996	1.0762	69.9463	-5.2490	-160.8276	10.2173	52.2345	177.4622	40.8000	-24	-275	104 
10.209	-0.5610	0.3237	-0.5464	-19.8364	-168.2739	-12.0850	2.8290	43.7970	162.9767	40.8100	-17	-272	103 
10.209	0.4307	-0.1089	-1.0708	78.3691	223.9380	26.1841	2.2632	42.0392	161.8121	40.8000	-34	-272	96 
10.428	0.6553	0.5601	0.5044	91.4917	-98.0225	-117.3706	-0.7196	59.4250	152.9572	40.7900	10	-280	116 
10.443	-1.0825	-0.2183	1.8882	20.9961	5.1880	-53.1006	-4.7516	61.1334	143.4485	40.8000	40	-283	129 
10.506	-0.1455	-0.0088	0.0659	44.6777	-79.4678	-53.5278	-5.4602	50.7568	139.8999	40.7800	43	-283	132 
10.693	-0.5933	-0.7310	-0.5571	73.3032	43.8843	-122.6196	-7.1411	45.9888	132.7203	40.7900	36	-285	136 
10.693	0.0454	0.1455	0.4839	67.5659	-75.4395	-126.5869	-24.0546	51.9159	106.8860	40.7900	82	-272	159 
10.771	-0.8833	-0.5981	0.5840	91.3086	61.0962	-191.5894	-31.1902	46.7303	88.9673	40.7800	119	-254	170 
10.975	-0.3721	0.3682	0.6230	88.8062	26.2451	-177.4292	-35.3925	38.6389	68.1042	40.7700	153	-217	194 
11.037	-0.8149	0.3970	1.0566	67.1997	-21.7896	-96.1304	-34.1675	33.6566	56.6785	40.7800	165	-172	203 
11.240	-0.6475	-0.0723	0.6973	46.2646	-6.2866	-91.4307	-31.1407	28.3228	53.7122	40.7700	163	-143	200 
11.240	-0.5713	0.2300	1.1084	42.9688	-22.2168	-61.7065	-26.9330	23.5822	51.3940	40.7700	151	-120	188 
11.318	-0.1392	-0.4287	0.6504	11.3525	-7.6904	-86.1206	-26.7792	18.3307	50.2515	40.7800	140	-104	175 
11.318	-0.5762	0.0518	0.9385	13.1226	-3.2349	-69.2139	-27.3779	16.4246	43.6981	40.7800	127	-81	165 
11.318	-0.2754	-0.2954	0.9595	28.2593	12.5732	-88.0127	-26.8341	13.0957	40.5505	40.7800	117	-65	161 
11.459	-0.2363	-0.0073	0.7725	38.3301	-11.4746	-18.7378	-23.3789	11.3873	38.7378	40.7700	101	-47	154 
11.459	-0.7729	0.0112	0.8062	45.0439	230.8350	-11.5356	-21.5332	15.8148	40.6274	40.7500	96	-38	149 
11.600	-0.4077	-0.0244	0.7656	27.5269	-45.5322	-0.4883	-19.2096	12.9034	40.1715	40.7800	87	-35	136 
11.662	-0.5142	0.0874	0.9854	51.8188	5.7373	-77.8198	-16.0620	10.3217	39.9957	40.7600	69	-34	112 
11.959	-0.1714	0.0161	0.7764	23.0103	-2.3804	-14.6484	-12.3376	9.8053	40.7208	40.7500	47	-33	105 
12.146	-0.3428	0.0107	1.0986	26.1841	-8.9722	-32.3486	-9.9426	10.3766	42.3578	40.7500	37	-33	96 
12.240	-0.9028	0.2593	1.1201	6.5308	-1.0376	7.0190	-8.4869	10.7666	44.2639	40.7500	22	-34	83 
12.240	-0.2173	-0.6216	0.3647	18.0664	21.9727	-48.5229	-8.8495	10.3986	47.4554	40.7500	13	-41	82 
12.240	-0.6089	0.4150	0.7090	-24.1089	-25.5737	-7.8125	-9.8053	13.8318	47.0599	40.7300	8	-37	80 
12.256	-0.3823	-0.2739	1.1099	-11.5967	15.1367	10.6201	-11.8597	15.6061	52.3828	40.7300	1	-36	81 
12.459	-0.2393	-0.0283	0.8647	-9.2163	1.6479	-23.3154	-12.9913	15.2271	54.7064	40.7000	0	-39	83 
12.553	-0.4712	-0.3628	1.1802	-6.6528	-17.8833	17.9443	-13.3594	15.2765	60.0952	40.7100	-1	-41	89 
12.662	-0.6924	0.1719	0.4277	-6.4697	-31.7993	-72.3877	-14.7711	14.7327	61.3092	40.7000	-5	-43	91 
12.709	-0.3716	-0.2207	0.6436	17.0898	3.6621	35.2173	-13.7494	13.9801	63.8910	40.7200	-16	-43	91 
12.818	-0.3901	0.3335	0.7891	52.7954	13.5498	-94.2383	-11.8048	15.7489	61.6992	40.7300	-17	-50	90 
12.881